# N Sco 2012
# 2012-06-25T01:28:12.300
# 
#     Wavelength       Flux    Uncertainty       Counts  Uncertainty
# 
       3649.7977  2.04393e-14  9.28710e-16      552.739      25.1150
       3651.2747  1.98290e-14  9.12771e-16      537.234      24.7300
       3652.7516  2.07563e-14  9.36205e-16      563.407      25.4122
       3654.2286  2.15794e-14  9.54407e-16      586.840      25.9546
       3655.7056  2.23887e-14  9.64483e-16      609.987      26.2776
       3657.1826  2.20232e-14  9.50208e-16      601.148      25.9370
       3658.6596  3.09810e-14  1.31195e-15      627.226      26.5611
       3660.1365  3.73710e-14  1.57008e-15      636.788      26.7536
       3661.6135  3.33762e-14  1.48025e-15      569.780      25.2701
       3663.0905  3.36510e-14  1.47600e-15      575.545      25.2446
       3664.5675  2.50207e-14  1.17848e-15      507.090      23.8841
       3666.0445  2.52803e-14  1.19903e-15      500.745      23.7501
       3667.5214  2.17813e-14  1.15085e-15      421.402      22.2654
       3668.9984  2.10390e-14  1.14081e-15      397.307      21.5434
       3670.4754  2.02683e-14  1.15926e-15      373.338      21.3533
       3671.9524  2.11720e-14  1.17484e-15      380.114      21.0927
       3673.4294  2.56764e-14  1.32475e-15      448.966      23.1639
       3674.9063  3.23405e-14  1.45416e-15      561.461      25.2456
       3676.3833  3.67288e-14  1.51643e-15      638.840      26.3759
       3677.8603  3.85212e-14  1.56978e-15      671.271      27.3550
       3679.3373  3.79257e-14  1.57282e-15      662.257      27.4645
       3680.8143  4.21894e-14  1.62221e-15      738.308      28.3884
       3682.2912  4.56746e-14  1.67773e-15      801.130      29.4274
       3683.7682  4.56687e-14  1.68212e-15      803.057      29.5790
       3685.2452  4.79291e-14  1.70351e-15      845.219      30.0410
       3686.7222  4.54782e-14  1.66351e-15      804.480      29.4263
       3688.1992  4.47801e-14  1.65801e-15      794.680      29.4236
       3689.6761  4.36409e-14  1.62898e-15      776.976      29.0022
       3691.1531  4.18166e-14  1.59002e-15      746.930      28.4010
       3692.6301  4.06444e-14  1.57160e-15      728.549      28.1709
       3694.1071  3.70940e-14  1.51066e-15      667.249      27.1738
       3695.5841  3.77522e-14  1.51211e-15      681.564      27.2991
       3697.0610  3.83611e-14  1.51909e-15      695.139      27.5274
       3698.5380  3.69258e-14  1.49509e-15      672.000      27.2087
       3700.0150  3.56977e-14  1.46163e-15      652.468      26.7151
       3701.4920  3.69547e-14  1.48525e-15      678.449      27.2675
       3702.9690  3.69533e-14  1.49780e-15      681.477      27.6217
       3704.4459  3.87741e-14  1.52260e-15      718.336      28.2080
       3705.9229  3.97140e-14  1.52810e-15      738.926      28.4321
       3707.3999  4.07410e-14  1.54928e-15      761.416      28.9549
       3708.8769  3.94890e-14  1.52903e-15      741.337      28.7049
       3710.3539  4.05831e-14  1.53441e-15      765.501      28.9428
       3711.8308  4.20582e-14  1.55605e-15      797.281      29.4975
       3713.3078  4.29791e-14  1.56858e-15      818.852      29.8851
       3714.7848  4.33134e-14  1.56450e-15      829.281      29.9539
       3716.2618  4.27751e-14  1.55289e-15      822.868      29.8731
       3717.7388  4.15005e-14  1.53614e-15      802.212      29.6939
       3719.2158  3.93065e-14  1.48696e-15      763.758      28.8929
       3720.6927  3.69627e-14  1.43042e-15      722.343      27.9539
       3722.1697  3.37674e-14  1.37148e-15      664.001      26.9688
       3723.6467  3.36468e-14  1.36818e-15      665.771      27.0723
       3725.1237  3.39503e-14  1.37168e-15      676.016      27.3127
       3726.6007  3.28455e-14  1.34430e-15      658.062      26.9332
       3728.0776  3.39460e-14  1.36184e-15      684.245      27.4505
       3729.5546  3.46597e-14  1.37670e-15      702.550      27.9057
       3731.0316  3.45744e-14  1.37182e-15      704.787      27.9640
       3732.5086  3.70693e-14  1.40793e-15      759.940      28.8633
       3733.9856  3.79325e-14  1.41762e-15      782.160      29.2310
       3735.4625  3.76709e-14  1.40635e-15      781.289      29.1674
       3736.9395  3.94251e-14  1.42801e-15      822.580      29.7944
       3738.4165  3.80914e-14  1.40498e-15      799.558      29.4914
       3739.8935  3.59585e-14  1.36152e-15      759.464      28.7561
       3741.3705  3.37359e-14  1.32115e-15      716.733      28.0684
       3742.8474  2.74655e-14  1.20091e-15      586.816      25.6581
       3744.3244  2.30440e-14  1.10113e-15      495.072      23.6564
       3745.8014  2.08170e-14  1.06270e-15      449.700      22.9569
       3747.2784  2.30142e-14  1.09807e-15      499.911      23.8520
       3748.7554  2.77565e-14  1.18148e-15      606.167      25.8020
       3750.2323  3.23860e-14  1.26742e-15      710.812      27.8174
       3751.7093  3.75503e-14  1.35783e-15      827.762      29.9321
       3753.1863  4.36774e-14  1.47020e-15      966.562      32.5350
       3754.6633  4.71430e-14  1.50937e-15      1047.04      33.5230
       3756.1403  4.98581e-14  1.53955e-15      1111.55      34.3231
       3757.6172  5.08187e-14  1.54924e-15      1137.68      34.6828
       3759.0942  5.62903e-14  1.62167e-15      1265.91      36.4696
       3760.5712  5.64436e-14  1.62859e-15      1275.47      36.8016
       3762.0482  5.76975e-14  1.63710e-15      1310.23      37.1761
       3763.5252  5.73056e-14  1.62209e-15      1307.70      37.0157
       3765.0021  5.82061e-14  1.63131e-15      1334.68      37.4064
       3766.4791  5.83149e-14  1.63917e-15      1343.65      37.7685
       3767.9561  5.79388e-14  1.62801e-15      1341.44      37.6926
       3769.4331  6.16190e-14  1.66385e-15      1433.42      38.7055
       3770.9101  6.08773e-14  1.65165e-15      1422.83      38.6024
       3772.3870  5.93799e-14  1.63495e-15      1394.57      38.3977
       3773.8640  5.70908e-14  1.59399e-15      1347.71      37.6285
       3775.3410  5.71960e-14  1.59170e-15      1357.23      37.7703
       3776.8180  5.55782e-14  1.56908e-15      1325.60      37.4242
       3778.2950  5.10578e-14  1.51745e-15      1223.86      36.3734
       3779.7719  4.77811e-14  1.46110e-15      1150.90      35.1933
       3781.2489  4.36669e-14  1.39244e-15      1056.86      33.7010
       3782.7259  4.22250e-14  1.35710e-15      1026.90      33.0043
       3784.2029  3.97254e-14  1.32293e-15      970.755      32.3279
       3785.6799  3.73836e-14  1.28646e-15      917.935      31.5884
       3787.1568  3.93666e-14  1.31369e-15      971.125      32.4070
       3788.6338  4.29164e-14  1.35599e-15      1063.51      33.6027
       3790.1108  4.61835e-14  1.40740e-15      1149.62      35.0335
       3791.5878  4.25746e-14  1.35146e-15      1064.49      33.7904
       3793.0648  4.27642e-14  1.34413e-15      1073.93      33.7551
       3794.5418  4.07359e-14  1.32264e-15      1027.49      33.3613
       3796.0187  3.82101e-14  1.28755e-15      968.002      32.6185
       3797.4957  3.66195e-14  1.24845e-15      931.714      31.7645
       3798.9727  3.64851e-14  1.23816e-15      932.265      31.6374
       3800.4497  3.37034e-14  1.18444e-15      864.807      30.3919
       3801.9267  3.25008e-14  1.18427e-15      837.262      30.5083
       3803.4036  3.26205e-14  1.17383e-15      843.484      30.3524
       3804.8806  3.25600e-14  1.16299e-15      844.762      30.1737
       3806.3576  3.43544e-14  1.18949e-15      894.233      30.9620
       3807.8346  3.35487e-14  1.18845e-15      876.123      31.0365
       3809.3116  3.35567e-14  1.18767e-15      879.334      31.1222
       3810.7885  3.78242e-14  1.23957e-15      994.709      32.5985
       3812.2655  3.73294e-14  1.22848e-15      985.445      32.4301
       3813.7425  3.57476e-14  1.20746e-15      947.582      32.0067
       3815.2195  3.57345e-14  1.20443e-15      951.331      32.0647
       3816.6965  3.57833e-14  1.19756e-15      956.712      32.0183
       3818.1734  3.38424e-14  1.17380e-15      908.633      31.5154
       3819.6504  3.33180e-14  1.16368e-15      898.176      31.3701
       3821.1274  3.25134e-14  1.14758e-15      879.871      31.0556
       3822.6044  3.10889e-14  1.11956e-15      844.452      30.4101
       3824.0814  3.27901e-14  1.14377e-15      893.947      31.1822
       3825.5583  3.34511e-14  1.14747e-15      915.400      31.4009
       3827.0353  3.69699e-14  1.19517e-15      1015.58      32.8317
       3828.5123  4.02039e-14  1.24928e-15      1108.65      34.4497
       3829.9893  4.27469e-14  1.29382e-15      1183.12      35.8095
       3831.4663  4.46437e-14  1.30717e-15      1240.15      36.3118
       3832.9432  4.87045e-14  1.35677e-15      1357.93      37.8283
       3834.4202  5.14969e-14  1.38956e-15      1441.04      38.8840
       3835.8972  5.32154e-14  1.40784e-15      1494.88      39.5477
       3837.3742  5.42289e-14  1.41730e-15      1529.64      39.9778
       3838.8512  5.51753e-14  1.42785e-15      1563.17      40.4523
       3840.3281  5.58394e-14  1.43064e-15      1588.65      40.7023
       3841.8051  5.53723e-14  1.42102e-15      1581.70      40.5911
       3843.2821  5.40577e-14  1.40412e-15      1549.92      40.2582
       3844.7591  5.04145e-14  1.35890e-15      1450.39      39.0946
       3846.2361  4.57117e-14  1.30212e-15      1319.31      37.5811
       3847.7130  4.36075e-14  1.26912e-15      1262.57      36.7450
       3849.1900  4.34880e-14  1.26875e-15      1263.28      36.8557
       3850.6670  4.31694e-14  1.25328e-15      1258.17      36.5266
       3852.1440  4.01616e-14  1.21183e-15      1174.16      35.4290
       3853.6210  3.89924e-14  1.18464e-15      1143.41      34.7383
       3855.0979  3.84178e-14  1.17864e-15      1129.79      34.6613
       3856.5749  3.64585e-14  1.15447e-15      1075.04      34.0416
       3858.0519  3.61158e-14  1.13330e-15      1067.59      33.5006
       3859.5289  3.75825e-14  1.15390e-15      1113.56      34.1899
       3861.0059  3.78371e-14  1.16422e-15      1124.17      34.5900
       3862.4828  3.96990e-14  1.19203e-15      1182.87      35.5176
       3863.9598  4.05738e-14  1.20793e-15      1212.17      36.0876
       3865.4368  4.03822e-14  1.19849e-15      1209.73      35.9030
       3866.9138  3.87444e-14  1.16836e-15      1163.67      35.0911
       3868.3908  3.79965e-14  1.15468e-15      1143.98      34.7644
       3869.8677  3.77901e-14  1.15567e-15      1140.35      34.8734
       3871.3447  3.53382e-14  1.12321e-15      1068.99      33.9771
       3872.8217  3.36067e-14  1.08908e-15      1019.36      33.0339
       3874.2987  3.17813e-14  1.06710e-15      966.930      32.4660
       3875.7757  3.23666e-14  1.07056e-15      988.109      32.6827
       3877.2527  3.48068e-14  1.10748e-15      1066.56      33.9356
       3878.7296  3.61475e-14  1.12600e-15      1111.94      34.6369
       3880.2066  3.93074e-14  1.16301e-15      1213.75      35.9119
       3881.6836  4.01014e-14  1.17645e-15      1242.91      36.4631
       3883.1606  3.80588e-14  1.13965e-15      1184.02      35.4549
       3884.6376  3.55847e-14  1.09648e-15      1111.19      34.2391
       3886.1145  3.40612e-14  1.07509e-15      1067.58      33.6964
       3887.5915  3.54301e-14  1.09538e-15      1114.62      34.4603
       3889.0685  3.79645e-14  1.13247e-15      1198.82      35.7603
       3890.5455  4.05372e-14  1.16380e-15      1284.90      36.8887
       3892.0225  4.34654e-14  1.19767e-15      1382.44      38.0926
       3893.4994  4.60899e-14  1.22973e-15      1470.55      39.2358
       3894.9764  4.72735e-14  1.24753e-15      1512.88      39.9243
       3896.4534  4.78242e-14  1.25747e-15      1535.03      40.3614
       3897.9304  4.51466e-14  1.22068e-15      1453.26      39.2934
       3899.4074  4.19576e-14  1.17945e-15      1354.63      38.0796
       3900.8843  4.14937e-14  1.17035e-15      1343.99      37.9079
       3902.3613  4.30916e-14  1.18445e-15      1400.45      38.4939
       3903.8383  4.68550e-14  1.22811e-15      1527.81      40.0452
       3905.3153  5.19404e-14  1.28912e-15      1698.85      42.1641
       3906.7923  5.61700e-14  1.33588e-15      1842.27      43.8143
       3908.2692  5.81468e-14  1.36254e-15      1911.92      44.8017
       3909.7462  5.70326e-14  1.34959e-15      1879.89      44.4846
       3911.2232  5.42311e-14  1.30846e-15      1792.05      43.2377
       3912.7002  4.84641e-14  1.23621e-15      1605.71      40.9581
       3914.1772  3.87334e-14  1.11120e-15      1286.85      36.9175
       3915.6541  3.01044e-14  9.91596e-16      1002.99      33.0371
       3917.1311  2.49843e-14  9.08802e-16      834.846      30.3674
       3918.6081  2.56382e-14  9.19221e-16      859.373      30.8116
       3920.0851  3.41486e-14  1.04280e-15      1148.51      35.0722
       3921.5621  4.61946e-14  1.19893e-15      1559.22      40.4678
       3923.0390  6.13950e-14  1.37009e-15      2079.67      46.4100
       3924.5160  7.28277e-14  1.49303e-15      2475.76      50.7552
       3925.9930  8.03560e-14  1.56514e-15      2741.49      53.3975
       3927.4700  8.45483e-14  1.59613e-15      2894.99      54.6525
       3928.9470  8.26369e-14  1.57403e-15      2839.84      54.0920
       3930.4239  7.42567e-14  1.48961e-15      2560.67      51.3677
       3931.9009  6.49997e-14  1.39349e-15      2248.39      48.2019
       3933.3779  6.51609e-14  1.38982e-15      2260.70      48.2186
       3934.8549  6.93773e-14  1.43352e-15      2414.23      49.8844
       3936.3319  7.25244e-14  1.46299e-15      2531.52      51.0667
       3937.8088  7.45949e-14  1.48575e-15      2611.89      52.0228
       3939.2858  7.44519e-14  1.48098e-15      2614.89      52.0146
       3940.7628  7.24428e-14  1.45999e-15      2551.91      51.4302
       3942.2398  7.01310e-14  1.43669e-15      2477.50      50.7538
       3943.7168  6.44920e-14  1.37529e-15      2284.52      48.7172
       3945.1937  5.64516e-14  1.28647e-15      2005.12      45.6943
       3946.6707  4.67112e-14  1.17181e-15      1663.75      41.7372
       3948.1477  3.69487e-14  1.04964e-15      1319.56      37.4861
       3949.6247  2.70074e-14  9.03468e-16      966.940      32.3467
       3951.1017  2.00695e-14  7.88243e-16      720.223      28.2872
       3952.5786  1.75872e-14  7.45611e-16      632.474      26.8138
       3954.0556  1.88692e-14  7.73510e-16      680.087      27.8790
       3955.5326  2.57259e-14  8.80316e-16      929.269      31.7987
       3957.0096  3.55745e-14  1.02248e-15      1287.84      37.0149
       3958.4866  4.69045e-14  1.16007e-15      1701.80      42.0897
       3959.9636  5.54440e-14  1.26191e-15      2016.20      45.8889
       3961.4405  6.11073e-14  1.31559e-15      2227.16      47.9492
       3962.9175  6.38774e-14  1.34083e-15      2333.70      48.9860
       3964.3945  6.22960e-14  1.32752e-15      2281.71      48.6230
       3965.8715  5.99214e-14  1.30497e-15      2200.32      47.9188
       3967.3485  5.66899e-14  1.26288e-15      2086.89      46.4896
       3968.8254  6.38509e-14  1.33429e-15      2356.50      49.2435
       3970.3024  7.15585e-14  1.40896e-15      2647.97      52.1374
       3971.7794  7.68285e-14  1.46212e-15      2850.95      54.2565
       3973.2564  8.25008e-14  1.51222e-15      3070.09      56.2739
       3974.7334  8.78187e-14  1.54891e-15      3277.24      57.8027
       3976.2103  8.68118e-14  1.54435e-15      3248.70      57.7933
       3977.6873  8.45272e-14  1.52303e-15      3171.89      57.1516
       3979.1643  7.57564e-14  1.44354e-15      2850.54      54.3170
       3980.6413  7.30375e-14  1.41138e-15      2755.75      53.2523
       3982.1183  6.63994e-14  1.34924e-15      2512.03      51.0445
       3983.5952  6.25188e-14  1.30502e-15      2371.74      49.5079
       3985.0722  5.90234e-14  1.26730e-15      2245.07      48.2042
       3986.5492  5.34407e-14  1.21548e-15      2038.19      46.3575
       3988.0262  5.06590e-14  1.17955e-15      1937.30      45.1082
       3989.5032  4.63388e-14  1.12262e-15      1777.11      43.0530
       3990.9801  4.36481e-14  1.09839e-15      1678.90      42.2491
       3992.4571  4.25637e-14  1.07780e-15      1642.28      41.5857
       3993.9341  4.09766e-14  1.06148e-15      1585.87      41.0812
       3995.4111  4.25478e-14  1.07278e-15      1651.23      41.6333
       3996.8881  4.07668e-14  1.04839e-15      1586.26      40.7933
       3998.3650  4.06460e-14  1.04750e-15      1585.66      40.8643
       3999.8420  3.88278e-14  1.03153e-15      1518.71      40.3472
       4001.3190  3.89635e-14  1.03180e-15      1528.15      40.4673
       4002.7960  4.07811e-14  1.05269e-15      1603.82      41.3997
       4004.2730  4.23207e-14  1.06042e-15      1669.02      41.8201
       4005.7499  4.27383e-14  1.06432e-15      1690.22      42.0919
       4007.2269  4.23800e-14  1.06729e-15      1680.87      42.3307
       4008.7039  4.12519e-14  1.04168e-15      1640.99      41.4379
       4010.1809  3.96842e-14  1.02331e-15      1583.49      40.8323
       4011.6579  3.87932e-14  1.01056e-15      1552.72      40.4484
       4013.1348  3.98154e-14  1.03145e-15      1598.50      41.4106
       4014.6118  4.15864e-14  1.04846e-15      1674.58      42.2188
       4016.0888  4.24055e-14  1.05612e-15      1712.63      42.6538
       4017.5658  4.44386e-14  1.07246e-15      1800.10      43.4428
       4019.0428  4.52581e-14  1.07991e-15      1838.82      43.8764
       4020.5197  4.67683e-14  1.09913e-15      1905.54      44.7831
       4021.9967  4.66529e-14  1.10142e-15      1905.90      44.9960
       4023.4737  4.59258e-14  1.08847e-15      1881.88      44.6017
       4024.9507  4.67669e-14  1.09449e-15      1922.74      44.9982
       4026.4277  4.66409e-14  1.09132e-15      1924.05      45.0193
       4027.9046  4.74400e-14  1.09552e-15      1963.59      45.3449
       4029.3816  4.61956e-14  1.08621e-15      1918.34      45.1065
       4030.8586  4.38926e-14  1.05371e-15      1828.42      43.8941
       4032.3356  4.10423e-14  1.02022e-15      1714.74      42.6247
       4033.8126  3.65555e-14  9.65269e-16      1531.79      40.4478
       4035.2895  3.24113e-14  9.18510e-16      1362.24      38.6050
       4036.7665  3.47676e-14  9.43250e-16      1465.72      39.7652
       4038.2435  3.50970e-14  9.44745e-16      1484.02      39.9471
       4039.7205  3.45878e-14  9.30621e-16      1466.57      39.4596
       4041.1975  3.49870e-14  9.37492e-16      1487.57      39.8602
       4042.6745  3.70858e-14  9.61574e-16      1581.07      40.9947
       4044.1514  3.61417e-14  9.50142e-16      1545.12      40.6202
       4045.6284  3.67609e-14  9.58783e-16      1575.93      41.1027
       4047.1054  3.68537e-14  9.56708e-16      1584.34      41.1289
       4048.5824  3.68389e-14  9.53575e-16      1588.08      41.1074
       4050.0594  3.58199e-14  9.42445e-16      1548.32      40.7372
       4051.5363  3.76716e-14  9.61386e-16      1632.70      41.6668
       4053.0133  3.87838e-14  9.67151e-16      1685.52      42.0317
       4054.4903  4.08128e-14  9.89696e-16      1777.86      43.1124
       4055.9673  4.05794e-14  9.84819e-16      1771.23      42.9858
       4057.4443  4.17467e-14  1.00635e-15      1825.72      44.0110
       4058.9212  4.12670e-14  9.92985e-16      1808.28      43.5116
       4060.3982  3.94166e-14  9.73090e-16      1730.75      42.7276
       4061.8752  3.92525e-14  9.69893e-16      1727.36      42.6814
       4063.3522  3.63834e-14  9.36689e-16      1604.84      41.3165
       4064.8292  3.42376e-14  9.08481e-16      1513.53      40.1608
       4066.3061  3.19986e-14  8.77400e-16      1417.46      38.8665
       4067.7831  3.13049e-14  8.65375e-16      1389.58      38.4129
       4069.2601  3.10564e-14  8.62207e-16      1381.45      38.3526
       4070.7371  3.19139e-14  8.76817e-16      1422.64      39.0863
       4072.2141  3.37945e-14  8.99752e-16      1509.62      40.1924
       4073.6910  3.51321e-14  9.14467e-16      1572.65      40.9351
