# N Sco 2012
# 2012-07-03T00:01:37.200
# 
#     Wavelength       Flux    Uncertainty       Counts  Uncertainty
# 
       3649.1622  2.93174e-14  2.50774e-15      283.252      24.2287
       3650.6390  3.18106e-14  2.57261e-15      308.065      24.9140
       3652.1157  3.36617e-14  2.67481e-15      326.762      25.9650
       3653.5925  3.53901e-14  2.69238e-15      344.350      26.1972
       3655.0692  3.65476e-14  2.76818e-15      356.453      26.9984
       3656.5459  3.91429e-14  2.81510e-15      382.667      27.5208
       3658.0227  5.49680e-14  4.16826e-15      358.158      27.1594
       3659.4994  7.67802e-14  5.41935e-15      391.784      27.6531
       3660.9761  7.45988e-14  5.38988e-15      381.553      27.5678
       3662.4529  6.60053e-14  5.18606e-15      338.398      26.5881
       3663.9296  4.64682e-14  3.95246e-15      305.091      25.9502
       3665.4063  4.86026e-14  4.07861e-15      308.832      25.9164
       3666.8831  4.55381e-14  4.14141e-15      279.689      25.4360
       3668.3598  4.23924e-14  4.17847e-15      251.322      24.7719
       3669.8366  4.55070e-14  4.34772e-15      260.027      24.8429
       3671.3133  5.52049e-14  4.71347e-15      303.545      25.9171
       3672.7900  5.27211e-14  4.89620e-15      278.471      25.8615
       3674.2668  5.80211e-14  5.01167e-15      303.152      26.1852
       3675.7435  6.73110e-14  5.14228e-15      352.525      26.9314
       3677.2202  7.97214e-14  5.32838e-15      418.512      27.9723
       3678.6970  9.05849e-14  5.49933e-15      477.006      28.9586
       3680.1737  9.65663e-14  5.56432e-15      510.340      29.4067
       3681.6504  9.34514e-14  5.56866e-15      495.787      29.5434
       3683.1272  9.40902e-14  5.61060e-15      501.288      29.8918
       3684.6039  9.65348e-14  5.57813e-15      516.857      29.8658
       3686.0807  1.00509e-13  5.62736e-15      541.204      30.3012
       3687.5574  1.02679e-13  5.69658e-15      556.277      30.8621
       3689.0341  9.30574e-14  5.53777e-15      507.341      30.1915
       3690.5109  8.81329e-14  5.49381e-15      483.659      30.1491
       3691.9876  8.01948e-14  5.35605e-15      443.182      29.5992
       3693.4643  7.32640e-14  5.20581e-15      407.896      28.9832
       3694.9411  6.98445e-14  5.12253e-15      391.878      28.7411
       3696.4178  6.76099e-14  5.07331e-15      382.346      28.6904
       3697.8945  7.54754e-14  5.20389e-15      430.225      29.6632
       3699.3713  7.52284e-14  5.18487e-15      432.242      29.7908
       3700.8480  6.79751e-14  5.00118e-15      393.737      28.9687
       3702.3247  7.38036e-14  5.00311e-15      431.138      29.2266
       3703.8015  8.20181e-14  5.01551e-15      483.510      29.5672
       3705.2782  8.46666e-14  4.97160e-15      503.810      29.5836
       3706.7550  8.54588e-14  4.98399e-15      513.481      29.9464
       3708.2317  8.62515e-14  5.00843e-15      523.430      30.3943
       3709.7084  8.16710e-14  4.97574e-15      500.430      30.4883
       3711.1852  8.54265e-14  5.08997e-15      528.559      31.4931
       3712.6619  8.99641e-14  5.17790e-15      562.452      32.3720
       3714.1386  9.25901e-14  5.18655e-15      585.050      32.7723
       3715.6154  8.91023e-14  5.06542e-15      568.683      32.3294
       3717.0921  8.99471e-14  4.95672e-15      579.538      31.9367
       3718.5688  8.68910e-14  4.76315e-15      564.951      30.9692
       3720.0456  8.26977e-14  4.61128e-15      542.623      30.2570
       3721.5223  8.31066e-14  4.61708e-15      550.184      30.5661
       3722.9991  7.75705e-14  4.56949e-15      517.965      30.5121
       3724.4758  7.40060e-14  4.55742e-15      498.496      30.6983
       3725.9525  7.16163e-14  4.51115e-15      486.837      30.6661
       3727.4293  7.05072e-14  4.46937e-15      483.895      30.6735
       3728.9060  7.53915e-14  4.49818e-15      522.339      31.1650
       3730.3827  8.12248e-14  4.51919e-15      568.087      31.6073
       3731.8595  8.07391e-14  4.41192e-15      569.984      31.1463
       3733.3362  8.44107e-14  4.34232e-15      601.403      30.9378
       3734.8129  8.88140e-14  4.35689e-15      638.230      31.3092
       3736.2897  8.49359e-14  4.31163e-15      615.329      31.2362
       3737.7664  8.64794e-14  4.42343e-15      631.349      32.2935
       3739.2432  8.94227e-14  4.48820e-15      658.330      33.0421
       3740.7199  8.25509e-14  4.39061e-15      613.405      32.6250
       3742.1966  7.15065e-14  4.15130e-15      536.590      31.1517
       3743.6734  6.69944e-14  3.97231e-15      507.611      30.0979
       3745.1501  5.76037e-14  3.70639e-15      440.462      28.3406
       3746.6268  5.68409e-14  3.65890e-15      438.560      28.2305
       3748.1036  6.14258e-14  3.70179e-15      478.169      28.8166
       3749.5803  7.22536e-14  3.94570e-15      567.482      30.9897
       3751.0570  8.73435e-14  4.28099e-15      691.997      33.9171
       3752.5338  1.02777e-13  4.58084e-15      821.330      36.6071
       3754.0105  1.14794e-13  4.75707e-15      925.439      38.3504
       3755.4873  1.19390e-13  4.77975e-15      970.536      38.8553
       3756.9640  1.25326e-13  4.73032e-15      1026.62      38.7488
       3758.4407  1.30974e-13  4.74019e-15      1080.54      39.1068
       3759.9175  1.32941e-13  4.76555e-15      1104.82      39.6044
       3761.3942  1.38670e-13  4.87798e-15      1161.27      40.8498
       3762.8709  1.29264e-13  4.72124e-15      1091.28      39.8578
       3764.3477  1.31152e-13  4.75464e-15      1116.70      40.4836
       3765.8244  1.42441e-13  4.85832e-15      1223.46      41.7293
       3767.3011  1.36161e-13  4.74731e-15      1179.80      41.1342
       3768.7779  1.40090e-13  4.78851e-15      1224.47      41.8547
       3770.2546  1.28770e-13  4.66155e-15      1134.53      41.0705
       3771.7314  1.26335e-13  4.66571e-15      1120.75      41.3908
       3773.2081  1.23477e-13  4.61243e-15      1101.88      41.1600
       3774.6848  1.14707e-13  4.50711e-15      1029.06      40.4343
       3776.1616  1.12652e-13  4.48375e-15      1016.02      40.4396
       3777.6383  1.14744e-13  4.47214e-15      1040.57      40.5562
       3779.1150  9.57515e-14  4.24358e-15      873.083      38.6939
       3780.5918  9.76347e-14  4.30652e-15      895.071      39.4802
       3782.0685  9.03184e-14  4.19079e-15      832.847      38.6443
       3783.5452  8.13351e-14  4.00812e-15      754.635      37.1877
       3785.0220  7.36730e-14  3.83954e-15      687.763      35.8434
       3786.4987  7.54190e-14  3.78058e-15      708.428      35.5119
       3787.9754  7.91869e-14  3.76934e-15      748.477      35.6280
       3789.4522  8.03096e-14  3.77801e-15      763.902      35.9363
       3790.9289  8.46035e-14  3.84554e-15      809.715      36.8045
       3792.4057  8.18480e-14  3.78677e-15      787.947      36.4550
       3793.8824  7.74034e-14  3.67411e-15      749.327      35.5683
       3795.3591  7.53510e-14  3.60065e-15      733.290      35.0403
       3796.8359  7.26891e-14  3.52361e-15      711.048      34.4681
       3798.3126  7.34134e-14  3.54833e-15      721.767      34.8855
       3799.7893  6.89467e-14  3.52295e-15      681.259      34.8101
       3801.2661  6.50224e-14  3.52030e-15      645.586      34.9519
       3802.7428  6.58849e-14  3.54071e-15      657.478      35.3334
       3804.2195  6.77744e-14  3.56178e-15      680.240      35.7490
       3805.6963  6.85982e-14  3.56643e-15      693.042      36.0313
       3807.1730  7.09666e-14  3.59256e-15      722.119      36.5560
       3808.6498  6.80038e-14  3.52679e-15      697.048      36.1500
       3810.1265  7.11034e-14  3.53849e-15      734.169      36.5362
       3811.6032  7.01727e-14  3.46428e-15      729.954      36.0364
       3813.0800  6.95970e-14  3.40433e-15      729.145      35.6661
       3814.5567  7.23145e-14  3.40295e-15      762.875      35.8990
       3816.0334  7.25803e-14  3.37817e-15      770.793      35.8757
       3817.5102  7.16589e-14  3.34207e-15      765.978      35.7242
       3818.9869  6.51061e-14  3.20853e-15      700.394      34.5164
       3820.4636  6.73409e-14  3.18592e-15      728.988      34.4886
       3821.9404  6.35241e-14  3.10471e-15      691.920      33.8172
       3823.4171  6.29172e-14  3.07105e-15      689.513      33.6558
       3824.8939  6.62136e-14  3.05603e-15      729.924      33.6890
       3826.3706  7.24768e-14  3.14869e-15      803.435      34.9046
       3827.8473  7.91926e-14  3.23118e-15      882.633      36.0128
       3829.3241  8.62586e-14  3.32270e-15      966.521      37.2306
       3830.8008  8.73646e-14  3.33038e-15      984.114      37.5149
       3832.2775  9.61500e-14  3.42806e-15      1088.79      38.8191
       3833.7543  1.01580e-13  3.49118e-15      1156.23      39.7380
       3835.2310  1.02931e-13  3.52046e-15      1177.29      40.2660
       3836.7077  1.04958e-13  3.52676e-15      1205.61      40.5105
       3838.1845  1.08499e-13  3.55324e-15      1250.99      40.9690
       3839.6612  1.13183e-13  3.62931e-15      1309.68      41.9961
       3841.1380  1.11739e-13  3.66528e-15      1297.55      42.5623
       3842.6147  1.09791e-13  3.67018e-15      1279.38      42.7682
       3844.0914  1.03611e-13  3.62668e-15      1211.55      42.4076
       3845.5682  1.00393e-13  3.57933e-15      1178.02      42.0001
       3847.0449  9.20050e-14  3.46718e-15      1083.65      40.8371
       3848.5216  8.69251e-14  3.38953e-15      1027.97      40.0843
       3849.9984  8.55667e-14  3.35569e-15      1016.18      39.8516
       3851.4751  7.87936e-14  3.26919e-15      939.630      38.9858
       3852.9518  7.62308e-14  3.21571e-15      912.844      38.5074
       3854.4286  7.53608e-14  3.15919e-15      906.169      37.9874
       3855.9053  7.57013e-14  3.12937e-15      914.071      37.7863
       3857.3821  7.99023e-14  3.16203e-15      968.924      38.3439
       3858.8588  8.14665e-14  3.16943e-15      992.166      38.5999
       3860.3355  8.33332e-14  3.21778e-15      1019.31      39.3589
       3861.8123  8.06807e-14  3.22560e-15      991.192      39.6277
       3863.2890  8.00230e-14  3.24395e-15      986.978      40.0098
       3864.7657  8.08532e-14  3.24299e-15      1000.79      40.1413
       3866.2425  8.09186e-14  3.22179e-15      1005.39      40.0298
       3867.7192  8.14288e-14  3.18750e-15      1015.96      39.7694
       3869.1959  7.75764e-14  3.10562e-15      972.244      38.9219
       3870.6727  7.47639e-14  3.05091e-15      941.288      38.4113
       3872.1494  7.34011e-14  3.02871e-15      928.354      38.3062
       3873.6262  6.94645e-14  2.99477e-15      882.482      38.0457
       3875.1029  6.59890e-14  2.96274e-15      841.887      37.7986
       3876.5796  6.69469e-14  2.94559e-15      857.531      37.7305
       3878.0564  7.08734e-14  2.96762e-15      911.280      38.1573
       3879.5331  7.79656e-14  3.04998e-15      1006.03      39.3555
       3881.0098  7.67971e-14  3.03193e-15      994.320      39.2555
       3882.4866  7.44998e-14  2.97757e-15      968.414      38.7051
       3883.9633  7.02117e-14  2.91768e-15      916.898      38.1022
       3885.4400  6.47620e-14  2.83897e-15      849.584      37.2431
       3886.9168  6.59072e-14  2.83819e-15      868.562      37.4033
       3888.3935  7.18634e-14  2.93144e-15      951.496      38.8132
       3889.8702  7.54550e-14  3.01069e-15      1003.73      40.0493
       3891.3470  8.05891e-14  3.10270e-15      1077.40      41.4803
       3892.8237  8.59645e-14  3.17214e-15      1154.95      42.6183
       3894.3005  8.72230e-14  3.18800e-15      1177.60      43.0414
       3895.7772  8.55684e-14  3.17218e-15      1160.91      43.0370
       3897.2539  8.16204e-14  3.11996e-15      1112.15      42.5123
       3898.7307  7.86377e-14  3.05765e-15      1075.54      41.8200
       3900.2074  8.00180e-14  3.06230e-15      1098.06      42.0228
       3901.6841  8.77953e-14  3.15803e-15      1208.50      43.4703
       3903.1609  9.90621e-14  3.26944e-15      1368.26      45.1578
       3904.6376  1.07898e-13  3.35912e-15      1495.43      46.5562
       3906.1143  1.11251e-13  3.41205e-15      1547.16      47.4515
       3907.5911  1.14135e-13  3.46656e-15      1593.11      48.3867
       3909.0678  1.09213e-13  3.42596e-15      1529.93      47.9933
       3910.5446  9.08122e-14  3.21726e-15      1276.75      45.2322
       3912.0213  7.62726e-14  3.05244e-15      1076.59      43.0854
       3913.4980  5.97044e-14  2.80885e-15      846.124      39.8067
       3914.9748  4.83273e-14  2.62129e-15      687.584      37.2948
       3916.4515  4.13616e-14  2.49015e-15      590.792      35.5683
       3917.9282  4.13615e-14  2.44791e-15      593.111      35.1022
       3919.4050  5.25125e-14  2.58896e-15      755.980      37.2711
       3920.8817  7.13115e-14  2.82098e-15      1030.69      40.7724
       3922.3584  9.96448e-14  3.16924e-15      1445.46      45.9734
       3923.8352  1.23796e-13  3.41120e-15      1802.75      49.6748
       3925.3119  1.42772e-13  3.56271e-15      2087.16      52.0827
       3926.7887  1.52994e-13  3.61718e-15      2245.35      53.0860
       3928.2654  1.54236e-13  3.57327e-15      2272.41      52.6461
       3929.7421  1.46646e-13  3.44641e-15      2168.99      50.9747
       3931.2189  1.24770e-13  3.16358e-15      1852.59      46.9732
       3932.6956  1.16739e-13  3.04420e-15      1740.06      45.3757
       3934.1723  1.27215e-13  3.17763e-15      1902.83      47.5298
       3935.6491  1.40821e-13  3.35826e-15      2113.64      50.4053
       3937.1258  1.57116e-13  3.56050e-15      2366.38      53.6260
       3938.6025  1.56766e-13  3.58833e-15      2369.12      54.2284
       3940.0793  1.57214e-13  3.60945e-15      2384.15      54.7373
       3941.5560  1.49480e-13  3.55126e-15      2275.10      54.0506
       3943.0328  1.38942e-13  3.44704e-15      2121.85      52.6413
       3944.5095  1.19962e-13  3.27368e-15      1837.23      50.1367
       3945.9862  9.61695e-14  3.04823e-15      1476.76      46.8082
       3947.4630  6.72192e-14  2.71631e-15      1035.32      41.8369
       3948.9397  5.02855e-14  2.49596e-15      776.921      38.5630
       3950.4164  3.60995e-14  2.31080e-15      559.357      35.8056
       3951.8932  3.59293e-14  2.27368e-15      558.305      35.3306
       3953.3699  3.77169e-14  2.30828e-15      587.755      35.9708
       3954.8466  4.12933e-14  2.36008e-15      645.188      36.8751
       3956.3234  6.24538e-14  2.63070e-15      978.406      41.2128
       3957.8001  7.95963e-14  2.85288e-15      1250.36      44.8151
       3959.2769  9.86684e-14  3.02342e-15      1554.24      47.6254
       3960.7536  1.19156e-13  3.18993e-15      1882.17      50.3877
       3962.2303  1.18077e-13  3.13259e-15      1870.31      49.6193
       3963.7071  1.21804e-13  3.13661e-15      1934.69      49.8206
       3965.1838  1.18281e-13  3.04998e-15      1884.23      48.5864
       3966.6605  1.15442e-13  2.95841e-15      1844.40      47.2661
       3968.1373  1.22333e-13  3.02104e-15      1960.46      48.4142
       3969.6140  1.36132e-13  3.19087e-15      2187.96      51.2847
       3971.0907  1.53288e-13  3.39052e-15      2470.99      54.6549
       3972.5675  1.63562e-13  3.52747e-15      2644.70      57.0371
       3974.0442  1.75732e-13  3.66722e-15      2849.89      59.4722
       3975.5210  1.71618e-13  3.66714e-15      2791.20      59.6426
       3976.9977  1.65218e-13  3.64585e-15      2693.95      59.4470
       3978.4744  1.58317e-13  3.60197e-15      2587.08      58.8604
       3979.9512  1.45735e-13  3.50709e-15      2386.27      57.4252
       3981.4279  1.36672e-13  3.42001e-15      2242.38      56.1120
       3982.9046  1.26818e-13  3.31726e-15      2084.77      54.5326
       3984.3814  1.10805e-13  3.16231e-15      1825.00      52.0845
       3985.8581  1.05842e-13  3.11616e-15      1746.58      51.4220
       3987.3348  9.90446e-14  3.05895e-15      1637.44      50.5718
       3988.8116  9.13985e-14  2.98220e-15      1513.70      49.3899
       3990.2883  8.80492e-14  2.94578e-15      1460.73      48.8704
       3991.7650  8.43433e-14  2.90570e-15      1401.64      48.2876
       3993.2418  8.47615e-14  2.89892e-15      1410.98      48.2568
       3994.7185  8.49284e-14  2.89029e-15      1416.16      48.1950
       3996.1953  8.44926e-14  2.87471e-15      1411.44      48.0218
       3997.6720  8.21204e-14  2.85509e-15      1374.99      47.8045
       3999.1487  7.61930e-14  2.80498e-15      1278.79      47.0778
       4000.6255  7.58243e-14  2.80450e-15      1275.55      47.1786
       4002.1022  7.73935e-14  2.82088e-15      1304.85      47.5599
       4003.5789  8.07317e-14  2.83524e-15      1364.14      47.9077
       4005.0557  8.12500e-14  2.81913e-15      1376.26      47.7521
       4006.5324  8.00969e-14  2.80392e-15      1360.06      47.6109
       4008.0091  7.88441e-14  2.80425e-15      1342.12      47.7354
       4009.4859  7.76728e-14  2.80385e-15      1325.51      47.8488
       4010.9626  7.53434e-14  2.77412e-15      1289.02      47.4612
       4012.4394  7.43175e-14  2.76810e-15      1274.94      47.4875
       4013.9161  7.48095e-14  2.76589e-15      1287.04      47.5851
       4015.3928  7.98867e-14  2.81832e-15      1378.36      48.6272
       4016.8696  8.21166e-14  2.84257e-15      1421.04      49.1910
       4018.3463  8.39504e-14  2.85550e-15      1457.16      49.5641
       4019.8230  8.68926e-14  2.88009e-15      1512.78      50.1417
       4021.2998  9.42416e-14  2.95074e-15      1645.92      51.5345
       4022.7765  9.07972e-14  2.90871e-15      1590.81      50.9619
       4024.2532  9.13845e-14  2.90674e-15      1606.27      51.0919
       4025.7300  9.21669e-14  2.91981e-15      1625.27      51.4878
       4027.2067  9.21163e-14  2.90869e-15      1629.22      51.4445
       4028.6835  8.88489e-14  2.85660e-15      1575.29      50.6475
       4030.1602  8.50711e-14  2.78242e-15      1511.86      49.4484
       4031.6369  8.19181e-14  2.72298e-15      1459.70      48.5208
       4033.1137  7.45161e-14  2.64214e-15      1331.87      47.2247
       4034.5904  7.25359e-14  2.63988e-15      1300.64      47.3358
       4036.0671  6.76924e-14  2.60365e-15      1217.50      46.8288
       4037.5439  6.68427e-14  2.61437e-15      1206.07      47.1719
       4039.0206  6.48061e-14  2.57371e-15      1173.09      46.5882
       4040.4973  6.10278e-14  2.51674e-15      1108.25      45.7032
       4041.9741  6.63466e-14  2.54682e-15      1208.80      46.4019
       4043.4508  6.94128e-14  2.53886e-15      1268.76      46.4066
       4044.9276  6.86000e-14  2.50534e-15      1257.84      45.9376
       4046.4043  6.75854e-14  2.50922e-15      1243.25      46.1578
       4047.8810  6.86077e-14  2.55626e-15      1266.05      47.1717
       4049.3578  7.14138e-14  2.59717e-15      1321.91      48.0751
       4050.8345  7.20048e-14  2.59617e-15      1336.98      48.2054
       4052.3112  7.14311e-14  2.57612e-15      1330.27      47.9755
       4053.7880  7.33322e-14  2.57955e-15      1369.72      48.1814
       4055.2647  7.71195e-14  2.60904e-15      1444.64      48.8736
       4056.7414  8.04946e-14  2.63216e-15      1512.20      49.4488
       4058.2182  7.71314e-14  2.59147e-15      1453.20      48.8247
       4059.6949  7.52938e-14  2.57190e-15      1422.65      48.5952
       4061.1717  7.43847e-14  2.55186e-15      1409.36      48.3501
       4062.6484  7.30141e-14  2.51252e-15      1386.79      47.7214
       4064.1251  6.99077e-14  2.46857e-15      1330.45      46.9805
       4065.6019  6.81057e-14  2.46374e-15      1298.25      46.9643
       4067.0786  6.80724e-14  2.47969e-15      1299.61      47.3410
       4068.5553  6.66534e-14  2.47272e-15      1274.47      47.2805
       4070.0321  6.81722e-14  2.47874e-15      1305.41      47.4647
       4071.5088  6.99911e-14  2.48642e-15      1342.18      47.6804
       4072.9855  6.87912e-14  2.48331e-15      1321.03      47.6880
