# N Sco 2012
# 2012-07-07T 1:28:40.3
# 
#     Wavelength       Flux    Uncertainty       Counts  Uncertainty
# 
       5623.0430  5.09889e-14  1.60029e-15      1072.16      33.6497
       5624.1434  5.36999e-14  1.63170e-15      1129.60      34.3237
       5625.2439  5.30692e-14  1.61293e-15      1116.77      33.9421
       5626.3443  5.44772e-14  1.63722e-15      1146.85      34.4667
       5627.4448  4.94638e-14  1.57492e-15      1041.72      33.1681
       5628.5452  5.18046e-14  1.60267e-15      1091.45      33.7658
       5629.6457  5.96521e-14  1.82142e-15      1108.46      33.8458
       5630.7461  5.63632e-14  1.80187e-15      1032.43      33.0055
       5631.8466  6.12002e-14  1.87098e-15      1121.47      34.2850
       5632.9470  6.45427e-14  1.90978e-15      1183.18      35.0097
       5634.0475  6.30209e-14  1.83940e-15      1206.45      35.2129
       5635.1479  6.36111e-14  1.85223e-15      1209.83      35.2280
       5636.2484  6.26786e-14  1.85376e-15      1184.29      35.0261
       5637.3488  6.56040e-14  1.90513e-15      1231.39      35.7593
       5638.4492  6.39488e-14  1.88638e-15      1192.34      35.1720
       5639.5497  6.59916e-14  1.92297e-15      1222.19      35.6141
       5640.6501  7.23791e-14  2.01799e-15      1331.45      37.1219
       5641.7506  7.45958e-14  2.04993e-15      1371.80      37.6976
       5642.8510  7.99980e-14  2.12268e-15      1471.72      39.0509
       5643.9515  8.63025e-14  2.19501e-15      1588.34      40.3976
       5645.0519  8.93074e-14  2.22663e-15      1644.29      40.9957
       5646.1524  9.08529e-14  2.25356e-15      1673.42      41.5084
       5647.2528  9.46312e-14  2.29439e-15      1744.00      42.2843
       5648.3533  9.87995e-14  2.33546e-15      1821.86      43.0659
       5649.4537  1.02885e-13  2.37939e-15      1898.37      43.9033
       5650.5542  1.05818e-13  2.41626e-15      1953.80      44.6134
       5651.6546  1.08843e-13  2.45606e-15      2011.03      45.3793
       5652.7551  1.10906e-13  2.47256e-15      2050.59      45.7165
       5653.8555  1.14953e-13  2.51581e-15      2126.94      46.5493
       5654.9559  1.18687e-13  2.55343e-15      2197.58      47.2789
       5656.0564  1.20058e-13  2.57504e-15      2224.55      47.7130
       5657.1568  1.18507e-13  2.55153e-15      2197.55      47.3149
       5658.2573  1.20160e-13  2.56932e-15      2230.41      47.6919
       5659.3577  1.22553e-13  2.59323e-15      2277.44      48.1907
       5660.4582  1.21467e-13  2.57641e-15      2260.02      47.9367
       5661.5586  1.21403e-13  2.57800e-15      2261.78      48.0290
       5662.6591  1.22430e-13  2.59031e-15      2284.05      48.3246
       5663.7595  1.23465e-13  2.59646e-15      2306.65      48.5084
       5664.8600  1.25328e-13  2.61221e-15      2344.82      48.8729
       5665.9604  1.25822e-13  2.61539e-15      2357.48      49.0037
       5667.0609  1.23891e-13  2.59368e-15      2324.95      48.6731
       5668.1613  1.23171e-13  2.58637e-15      2315.07      48.6122
       5669.2618  1.27520e-13  2.62928e-15      2400.66      49.4982
       5670.3622  1.30754e-13  2.65948e-15      2465.12      50.1394
       5671.4627  1.32874e-13  2.67572e-15      2508.71      50.5184
       5672.5631  1.34558e-13  2.68669e-15      2544.04      50.7962
       5673.6635  1.33065e-13  2.67555e-15      2519.21      50.6539
       5674.7640  1.35020e-13  2.69555e-15      2559.62      51.1004
       5675.8644  1.38329e-13  2.72487e-15      2625.85      51.7254
       5676.9649  1.41106e-13  2.74707e-15      2682.18      52.2171
       5678.0653  1.41936e-13  2.75561e-15      2701.66      52.4513
       5679.1658  1.43554e-13  2.77573e-15      2736.32      52.9091
       5680.2662  1.47464e-13  2.80690e-15      2814.72      53.5767
       5681.3667  1.46255e-13  2.78835e-15      2795.77      53.3012
       5682.4671  1.46192e-13  2.78631e-15      2799.09      53.3487
       5683.5676  1.45273e-13  2.77490e-15      2785.94      53.2150
       5684.6680  1.44444e-13  2.76507e-15      2774.23      53.1069
       5685.7685  1.44930e-13  2.76505e-15      2787.60      53.1834
       5686.8689  1.43285e-13  2.75057e-15      2759.82      52.9786
       5687.9694  1.38767e-13  2.71081e-15      2676.48      52.2850
       5689.0698  1.39644e-13  2.71428e-15      2697.07      52.4234
       5690.1702  1.38293e-13  2.69824e-15      2674.48      52.1819
       5691.2707  1.35468e-13  2.66787e-15      2623.26      51.6619
       5692.3711  1.35296e-13  2.66899e-15      2623.23      51.7486
       5693.4716  1.36101e-13  2.66969e-15      2642.14      51.8270
       5694.5720  1.38425e-13  2.69070e-15      2690.64      52.3005
       5695.6725  1.34855e-13  2.65634e-15      2624.58      51.6984
       5696.7729  1.30111e-13  2.60957e-15      2536.09      50.8652
       5697.8734  1.32021e-13  2.62600e-15      2578.39      51.2862
       5698.9738  1.35246e-13  2.65290e-15      2646.49      51.9119
       5700.0743  1.30802e-13  2.60643e-15      2564.44      51.1003
       5701.1747  1.27047e-13  2.56817e-15      2495.54      50.4458
       5702.2752  1.26457e-13  2.55692e-15      2488.55      50.3176
       5703.3756  1.24646e-13  2.53367e-15      2457.35      49.9506
       5704.4761  1.21647e-13  2.50586e-15      2401.88      49.4772
       5705.5765  1.22969e-13  2.51764e-15      2430.95      49.7708
       5706.6770  1.25321e-13  2.53854e-15      2480.35      50.2429
       5707.7774  1.26845e-13  2.55410e-15      2513.47      50.6101
       5708.8778  1.33042e-13  2.61285e-15      2639.34      51.8349
       5709.9783  1.32847e-13  2.60736e-15      2638.58      51.7867
       5711.0787  1.32098e-13  2.59809e-15      2626.76      51.6629
       5712.1792  1.33841e-13  2.61433e-15      2664.53      52.0465
       5713.2796  1.35622e-13  2.63030e-15      2702.99      52.4229
       5714.3801  1.37055e-13  2.64142e-15      2734.59      52.7031
       5715.4805  1.37834e-13  2.65256e-15      2753.20      52.9842
       5716.5810  1.38347e-13  2.65325e-15      2766.53      53.0570
       5717.6814  1.39858e-13  2.67062e-15      2799.88      53.4646
       5718.7819  1.42939e-13  2.68874e-15      2865.86      53.9080
       5719.8823  1.39671e-13  2.65986e-15      2804.12      53.4011
       5720.9828  1.40075e-13  2.66215e-15      2814.80      53.4960
       5722.0832  1.40207e-13  2.66221e-15      2820.26      53.5503
       5723.1837  1.37060e-13  2.63252e-15      2759.79      53.0075
       5724.2841  1.41755e-13  2.67772e-15      2857.38      53.9755
       5725.3845  1.39235e-13  2.65199e-15      2809.68      53.5153
       5726.4850  1.43995e-13  2.69363e-15      2909.08      54.4186
       5727.5854  1.44243e-13  2.69060e-15      2918.84      54.4459
       5728.6859  1.44639e-13  2.69693e-15      2932.47      54.6788
       5729.7863  1.51897e-13  2.75649e-15      3085.54      55.9935
       5730.8868  1.50923e-13  2.74818e-15      3071.62      55.9317
       5731.9872  1.57445e-13  2.79762e-15      3210.50      57.0471
       5733.0877  1.59027e-13  2.81053e-15      3249.05      57.4213
       5734.1881  1.66220e-13  2.86995e-15      3403.07      58.7574
       5735.2886  1.70957e-13  2.90897e-15      3507.47      59.6823
       5736.3890  1.72353e-13  2.92000e-15      3543.63      60.0362
       5737.4895  1.70971e-13  2.90158e-15      3522.76      59.7855
       5738.5899  1.66381e-13  2.85547e-15      3435.54      58.9616
       5739.6904  1.68015e-13  2.86920e-15      3476.71      59.3719
       5740.7908  1.72167e-13  2.89968e-15      3570.18      60.1301
       5741.8913  1.69755e-13  2.87826e-15      3526.29      59.7896
       5742.9917  1.71316e-13  2.88903e-15      3564.57      60.1121
       5744.0921  1.67262e-13  2.85844e-15      3485.94      59.5734
       5745.1926  1.69863e-13  2.87621e-15      3546.03      60.0432
       5746.2930  1.66145e-13  2.83936e-15      3474.99      59.3866
       5747.3935  1.66580e-13  2.84120e-15      3490.63      59.5364
       5748.4939  1.68170e-13  2.85350e-15      3530.83      59.9109
       5749.5944  1.67033e-13  2.83564e-15      3513.57      59.6483
       5750.6948  1.69081e-13  2.85557e-15      3561.75      60.1536
       5751.7953  1.71525e-13  2.87269e-15      3617.26      60.5817
       5752.8957  1.64493e-13  2.81474e-15      3472.82      59.4255
       5753.9962  1.67163e-13  2.82952e-15      3533.11      59.8037
       5755.0966  1.65183e-13  2.81317e-15      3495.12      59.5242
       5756.1971  1.65147e-13  2.81333e-15      3498.16      59.5922
       5757.2975  1.64868e-13  2.80809e-15      3495.54      59.5370
       5758.3980  1.62498e-13  2.78789e-15      3448.56      59.1650
       5759.4984  1.60817e-13  2.77046e-15      3416.20      58.8524
       5760.5988  1.58494e-13  2.74830e-15      3370.07      58.4373
       5761.6993  1.56944e-13  2.73405e-15      3340.30      58.1898
       5762.7997  1.55953e-13  2.72811e-15      3322.37      58.1187
       5763.9002  1.56196e-13  2.72648e-15      3331.05      58.1451
       5765.0006  1.55935e-13  2.72334e-15      3329.74      58.1525
       5766.1011  1.51333e-13  2.68208e-15      3235.60      57.3449
       5767.2015  1.51352e-13  2.68029e-15      3240.16      57.3800
       5768.3020  1.52530e-13  2.68736e-15      3269.25      57.5995
       5769.4024  1.52215e-13  2.68320e-15      3265.94      57.5712
       5770.5029  1.49305e-13  2.65712e-15      3206.96      57.0730
       5771.6033  1.43411e-13  2.60565e-15      3083.54      56.0254
       5772.7038  1.39168e-13  2.56829e-15      2995.88      55.2879
       5773.8042  1.37539e-13  2.54611e-15      2964.56      54.8799
       5774.9047  1.35263e-13  2.52174e-15      2919.38      54.4266
       5776.0051  1.33516e-13  2.50598e-15      2885.77      54.1636
       5777.1056  1.30480e-13  2.47804e-15      2824.39      53.6401
       5778.2060  1.26594e-13  2.43813e-15      2744.37      52.8552
       5779.3064  1.16420e-13  2.33826e-15      2527.60      50.7662
       5780.4069  1.07520e-13  2.24783e-15      2338.15      48.8818
       5781.5073  1.09572e-13  2.26345e-15      2386.57      49.2996
       5782.6078  1.15693e-13  2.32515e-15      2523.99      50.7262
       5783.7082  1.19776e-13  2.36499e-15      2618.19      51.6963
       5784.8087  1.19962e-13  2.36398e-15      2627.60      51.7796
       5785.9091  1.18075e-13  2.34355e-15      2591.70      51.4399
       5787.0096  1.17321e-13  2.33628e-15      2581.02      51.3970
       5788.1100  1.17602e-13  2.33576e-15      2592.78      51.4965
       5789.2105  1.18859e-13  2.34406e-15      2626.14      51.7913
       5790.3109  1.19797e-13  2.34733e-15      2653.81      51.9994
       5791.4114  1.19697e-13  2.34006e-15      2658.59      51.9754
       5792.5118  1.19588e-13  2.33847e-15      2662.96      52.0725
       5793.6123  1.17590e-13  2.31836e-15      2625.52      51.7638
       5794.7127  1.14757e-13  2.28717e-15      2569.03      51.2019
       5795.8131  1.12349e-13  2.26085e-15      2521.35      50.7382
       5796.9136  1.12002e-13  2.25015e-15      2519.60      50.6192
       5798.0140  1.11777e-13  2.24624e-15      2520.41      50.6494
       5799.1145  1.14482e-13  2.27058e-15      2587.18      51.3128
       5800.2149  1.17485e-13  2.29682e-15      2661.37      52.0294
       5801.3154  1.16809e-13  2.28932e-15      2652.57      51.9873
       5802.4158  1.16286e-13  2.27955e-15      2647.32      51.8953
       5803.5163  1.14716e-13  2.26539e-15      2617.93      51.6984
       5804.6167  1.13051e-13  2.24605e-15      2586.20      51.3814
       5805.7172  1.11530e-13  2.22931e-15      2557.39      51.1183
       5806.8176  1.10846e-13  2.21881e-15      2546.89      50.9811
       5807.9181  1.12455e-13  2.22836e-15      2588.91      51.3007
       5809.0185  1.11581e-13  2.21897e-15      2574.02      51.1884
       5810.1190  1.13488e-13  2.23593e-15      2622.65      51.6715
       5811.2194  1.14111e-13  2.24083e-15      2641.50      51.8720
       5812.3199  1.12355e-13  2.22580e-15      2605.31      51.6124
       5813.4203  1.11950e-13  2.21936e-15      2599.30      51.5300
       5814.5207  1.12663e-13  2.22108e-15      2619.21      51.6361
       5815.6212  1.13348e-13  2.22545e-15      2638.49      51.8033
       5816.7216  1.12974e-13  2.21967e-15      2632.92      51.7304
       5817.8221  1.10991e-13  2.20440e-15      2589.83      51.4367
       5818.9225  1.10300e-13  2.19457e-15      2576.83      51.2696
       5820.0230  1.12430e-13  2.21314e-15      2629.83      51.7673
       5821.1234  1.11345e-13  2.20548e-15      2607.80      51.6543
       5822.2239  1.11124e-13  2.20481e-15      2606.13      51.7082
       5823.3243  1.09494e-13  2.18488e-15      2570.98      51.3022
       5824.4248  1.06414e-13  2.14834e-15      2501.47      50.5006
       5825.5252  1.04855e-13  2.12978e-15      2467.48      50.1187
       5826.6257  1.01843e-13  2.09925e-15      2399.45      49.4591
       5827.7261  1.00612e-13  2.09253e-15      2373.42      49.3623
       5828.8266  1.00150e-13  2.07993e-15      2365.52      49.1275
       5829.9270  9.54204e-14  2.03399e-15      2256.83      48.1067
       5831.0274  9.41899e-14  2.02283e-15      2230.78      47.9085
       5832.1279  9.42151e-14  2.01453e-15      2234.13      47.7707
       5833.2283  8.95629e-14  1.96436e-15      2126.93      46.6494
       5834.3288  8.97420e-14  1.96177e-15      2134.70      46.6648
       5835.4292  8.51635e-14  1.91210e-15      2029.08      45.5571
       5836.5297  7.93601e-14  1.84681e-15      1893.97      44.0752
       5837.6301  7.23298e-14  1.77004e-15      1729.15      42.3154
       5838.7306  6.25349e-14  1.65033e-15      1497.62      39.5230
       5839.8310  5.40669e-14  1.52607e-15      1297.00      36.6084
       5840.9315  5.17237e-14  1.49430e-15      1243.00      35.9102
       5842.0319  5.36061e-14  1.52430e-15      1290.55      36.6971
       5843.1324  5.84241e-14  1.58109e-15      1409.08      38.1328
       5844.2328  6.03965e-14  1.61066e-15      1459.75      38.9289
       5845.3333  6.02549e-14  1.59819e-15      1459.46      38.7103
       5846.4337  6.31466e-14  1.63534e-15      1532.77      39.6949
       5847.5342  6.83488e-14  1.70039e-15      1662.65      41.3637
       5848.6346  8.05018e-14  1.84947e-15      1962.59      45.0890
       5849.7350  8.99564e-14  1.94313e-15      2197.62      47.4704
       5850.8355  9.63938e-14  2.00374e-15      2359.94      49.0561
       5851.9359  1.08446e-13  2.12000e-15      2660.63      52.0123
       5853.0364  1.16052e-13  2.19121e-15      2853.18      53.8716
       5854.1368  1.21454e-13  2.23638e-15      2992.30      55.0983
       5855.2373  1.25616e-13  2.27272e-15      3101.47      56.1136
       5856.3377  1.24690e-13  2.26584e-15      3084.51      56.0512
       5857.4382  1.27445e-13  2.28697e-15      3158.11      56.6715
       5858.5386  1.21952e-13  2.23859e-15      3027.18      55.5681
       5859.6391  1.18961e-13  2.20540e-15      2957.87      54.8352
       5860.7395  1.13242e-13  2.15770e-15      2820.19      53.7356
       5861.8400  1.14292e-13  2.16101e-15      2850.70      53.9005
       5862.9404  1.12058e-13  2.13575e-15      2799.17      53.3503
       5864.0409  1.03136e-13  2.05056e-15      2580.14      51.2988
       5865.1413  9.01056e-14  1.92032e-15      2257.52      48.1119
       5866.2417  8.39534e-14  1.85940e-15      2106.50      46.6547
       5867.3422  7.87459e-14  1.79592e-15      1978.05      45.1124
       5868.4426  7.30298e-14  1.73152e-15      1836.44      43.5416
       5869.5431  7.21406e-14  1.71710e-15      1815.94      43.2232
       5870.6435  7.49937e-14  1.74917e-15      1889.74      44.0768
       5871.7440  8.21586e-14  1.82728e-15      2072.43      46.0926
       5872.8444  9.00920e-14  1.91198e-15      2274.90      48.2791
       5873.9449  1.02861e-13  2.03577e-15      2599.74      51.4526
       5875.0453  1.11614e-13  2.12123e-15      2823.67      53.6640
       5876.1458  1.25971e-13  2.24613e-15      3190.16      56.8821
       5877.2462  1.43560e-13  2.40027e-15      3639.36      60.8488
       5878.3467  1.68256e-13  2.58811e-15      4269.75      65.6770
       5879.4471  1.83794e-13  2.70749e-15      4668.63      68.7742
       5880.5476  2.07621e-13  2.87105e-15      5279.08      73.0010
       5881.6480  2.24641e-13  2.99019e-15      5717.69      76.1080
       5882.7485  2.38483e-13  3.07632e-15      6076.97      78.3901
       5883.8489  2.41289e-13  3.09028e-15      6155.53      78.8360
       5884.9493  2.37237e-13  3.06485e-15      6059.09      78.2770
       5886.0498  2.19029e-13  2.94533e-15      5600.73      75.3144
       5887.1502  1.91847e-13  2.75411e-15      4911.56      70.5092
       5888.2507  1.59934e-13  2.51830e-15      4099.47      64.5496
       5889.3511  1.46512e-13  2.42228e-15      3759.85      62.1616
       5890.4516  1.66691e-13  2.57316e-15      4282.74      66.1113
       5891.5520  2.12205e-13  2.89300e-15      5458.31      74.4134
       5892.6525  2.21983e-13  2.95175e-15      5716.27      76.0105
       5893.7529  2.04352e-13  2.83361e-15      5267.84      73.0456
       5894.8534  1.78716e-13  2.65473e-15      4611.64      68.5034
       5895.9538  1.79396e-13  2.66068e-15      4633.83      68.7258
       5897.0543  2.16430e-13  2.90959e-15      5595.73      75.2266
       5898.1547  2.56644e-13  3.16531e-15      6641.54      81.9132
       5899.2552  2.71671e-13  3.25776e-15      7036.12      84.3741
       5900.3556  2.78976e-13  3.29585e-15      7230.64      85.4234
       5901.4560  2.79386e-13  3.29546e-15      7247.19      85.4834
       5902.5565  2.76946e-13  3.28076e-15      7189.74      85.1712
       5903.6569  2.77532e-13  3.28538e-15      7211.65      85.3704
       5904.7574  2.74888e-13  3.26918e-15      7149.40      85.0262
       5905.8578  2.78395e-13  3.28640e-15      7246.77      85.5466
       5906.9583  2.65899e-13  3.20685e-15      6927.86      83.5527
       5908.0587  2.59869e-13  3.16851e-15      6777.42      82.6353
       5909.1592  2.50373e-13  3.11146e-15      6537.54      81.2442
       5910.2596  2.43064e-13  3.06409e-15      6354.46      80.1048
       5911.3601  2.37816e-13  3.03131e-15      6225.01      79.3469
       5912.4605  2.33252e-13  2.99892e-15      6114.04      78.6081
       5913.5610  2.28249e-13  2.96485e-15      5992.37      77.8383
       5914.6614  2.18951e-13  2.90124e-15      5759.47      76.3165
       5915.7619  2.17005e-13  2.88698e-15      5719.37      76.0891
       5916.8623  2.11658e-13  2.84753e-15      5589.28      75.1953
       5917.9628  2.02881e-13  2.78609e-15      5367.91      73.7154
       5919.0632  2.00569e-13  2.77153e-15      5317.37      73.4772
       5920.1636  1.97401e-13  2.74535e-15      5244.49      72.9376
       5921.2641  1.93519e-13  2.71406e-15      5152.52      72.2629
       5922.3645  1.90864e-13  2.68994e-15      5093.85      71.7901
       5923.4650  1.85931e-13  2.65299e-15      4974.01      70.9728
       5924.5654  1.82762e-13  2.63317e-15      4900.53      70.6051
       5925.6659  1.80114e-13  2.60726e-15      4840.66      70.0712
       5926.7663  1.77904e-13  2.58888e-15      4791.69      69.7294
       5927.8668  1.77922e-13  2.58604e-15      4802.59      69.8040
       5928.9672  1.78740e-13  2.58494e-15      4834.70      69.9192
       5930.0677  1.76064e-13  2.56590e-15      4771.89      69.5439
       5931.1681  1.71173e-13  2.53200e-15      4648.34      68.7584
       5932.2686  1.71180e-13  2.52699e-15      4656.39      68.7386
       5933.3690  1.68353e-13  2.50585e-15      4587.09      68.2765
       5934.4695  1.65901e-13  2.48206e-15      4527.64      67.7387
       5935.5699  1.65289e-13  2.47313e-15      4517.69      67.5956
       5936.6703  1.62546e-13  2.45433e-15      4448.96      67.1761
       5937.7708  1.61688e-13  2.44367e-15      4430.15      66.9552
       5938.8712  1.64818e-13  2.46880e-15      4520.68      67.7150
