# N Sco 2012
# 2012-07-19T01:06:17.200
# 
#     Wavelength       Flux    Uncertainty       Counts  Uncertainty
# 
       2678.9381      0.00000      0.00000      0.00000      6.00000
       2684.6478      0.00000      0.00000      0.00000      6.00000
       2690.3575      0.00000      0.00000      0.00000      6.00000
       2696.0672      0.00000      0.00000      6.03318      7.04009
       2701.7769      0.00000      0.00000      5.98280      7.53453
       2707.4866      0.00000      0.00000      2.09846      6.70806
       2713.1963      0.00000      0.00000      4.20026      6.76433
       2718.9060      0.00000      0.00000      15.1210      7.65717
       2724.6157      0.00000      0.00000      23.3543      7.69098
       2730.3253      0.00000      0.00000      15.8718      7.64539
       2736.0350      0.00000      0.00000      4.82299      7.56895
       2741.7447      0.00000      0.00000      18.4495      7.28725
       2747.4544      0.00000      0.00000      36.4177      8.32622
       2753.1641      0.00000      0.00000      4.41990      7.23393
       2758.8738      0.00000      0.00000      6.63862      7.30639
       2764.5835      0.00000      0.00000      2.30893      6.38030
       2770.2932      0.00000      0.00000      8.43082      7.24329
       2776.0028      0.00000      0.00000      8.45952      7.53023
       2781.7125      0.00000      0.00000      2.47771      6.62574
       2787.4222      0.00000      0.00000      4.83556      6.67768
       2793.1319      0.00000      0.00000      8.03123      7.12554
       2798.8416      0.00000      0.00000      1.54181      6.37135
       2804.5513      0.00000      0.00000      6.40217      7.45588
       2810.2610      0.00000      0.00000      6.85263      7.20677
       2815.9707      0.00000      0.00000      0.00000      6.00000
       2821.6803      0.00000      0.00000      0.00000      6.00000
       2827.3900      0.00000      0.00000      20.9901      7.35316
       2833.0997      0.00000      0.00000      4.68918      6.30229
       2838.8094      0.00000      0.00000      2.62418      7.10592
       2844.5191      0.00000      0.00000      1.21817      6.51338
       2850.2288      0.00000      0.00000      12.3506      6.85783
       2855.9385      0.00000      0.00000      15.9619      7.31355
       2861.6482      0.00000      0.00000      6.24045      6.65095
       2867.3579      0.00000      0.00000      0.00000      6.00000
       2873.0675      0.00000      0.00000     0.902451      6.43428
       2878.7772      0.00000      0.00000      4.94830      7.37801
       2884.4869      0.00000      0.00000      9.32322      7.09371
       2890.1966      0.00000      0.00000      0.00000      6.00000
       2895.9063      0.00000      0.00000      1.26666      6.07030
       2901.6160      0.00000      0.00000      28.5146      7.58257
       2907.3257      0.00000      0.00000      8.17854      7.47330
       2913.0354      0.00000      0.00000      31.1175      8.59923
       2918.7450      0.00000      0.00000      19.3815      7.78773
       2924.4547      0.00000      0.00000      6.47028      7.28269
       2930.1644      0.00000      0.00000      20.4717      8.09753
       2935.8741      0.00000      0.00000      24.0043      8.00352
       2941.5838      0.00000      0.00000      14.5911      7.35187
       2947.2935      0.00000      0.00000      5.02725      6.58449
       2953.0032      0.00000      0.00000      11.6077      6.92966
       2958.7129      0.00000      0.00000      18.0085      7.44229
       2964.4226      0.00000      0.00000      3.73858      6.35122
       2970.1322      0.00000      0.00000      9.60099      6.90195
       2975.8419      0.00000      0.00000      0.00000      6.00000
       2981.5516      0.00000      0.00000     0.628506      6.14541
       2987.2613      0.00000      0.00000      5.66039      7.18778
       2992.9710      0.00000      0.00000      13.5820      7.26040
       2998.6807      0.00000      0.00000      31.4187      7.51544
       3004.3904      0.00000      0.00000      3.25274      6.15394
       3010.1001      0.00000      0.00000      13.3824      7.16463
       3015.8097      0.00000      0.00000      16.7093      7.28348
       3021.5194      0.00000      0.00000      4.44936      6.33052
       3027.2291      0.00000      0.00000      14.7157      6.92123
       3032.9388      0.00000      0.00000      24.6832      7.69771
       3038.6485      0.00000      0.00000      19.4909      7.45274
       3044.3582      0.00000      0.00000      14.2518      7.21000
       3050.0679      0.00000      0.00000      37.3020      8.06084
       3055.7776      0.00000      0.00000      40.7566      8.20991
       3061.4872      0.00000      0.00000      13.0346      7.39132
       3067.1969      0.00000      0.00000      17.5556      7.54709
       3072.9066      0.00000      0.00000      19.9469      7.48112
       3078.6163      0.00000      0.00000      25.6104      7.94517
       3084.3260      0.00000      0.00000      53.0807      9.16304
       3090.0357      0.00000      0.00000      13.9719      7.77035
       3095.7454      0.00000      0.00000     0.837297      7.34049
       3101.4551      0.00000      0.00000     0.349541      6.08769
       3107.1648      0.00000      0.00000      7.69412      7.93012
       3112.8744      0.00000      0.00000      30.4220      8.74538
       3118.5841      0.00000      0.00000      23.7841      8.04542
       3124.2938      0.00000      0.00000      12.4489      8.19344
       3130.0035      0.00000      0.00000      76.3074      9.83574
       3135.7132      0.00000      0.00000      74.7919      10.3023
       3141.4229      0.00000      0.00000      96.4495      11.0428
       3147.1326      0.00000      0.00000      80.9938      10.4279
       3152.8423      0.00000      0.00000      57.1629      9.40130
       3158.5519      0.00000      0.00000      57.3015      9.70845
       3164.2616      0.00000      0.00000      53.8387      9.58533
       3169.9713      0.00000      0.00000      71.6791      10.0092
       3175.6810      0.00000      0.00000      109.576      11.6572
       3181.3907      0.00000      0.00000      98.9706      11.2224
       3187.1004      0.00000      0.00000      59.2755      9.61170
       3192.8101      0.00000      0.00000      47.7206      10.0143
       3198.5198      0.00000      0.00000      56.3016      10.6649
       3204.2294      0.00000      0.00000      80.6347      10.7842
       3209.9391      0.00000      0.00000      75.5428      10.6873
       3215.6488      0.00000      0.00000      92.7629      11.5260
       3221.3585      0.00000      0.00000      122.075      12.4918
       3227.0682      0.00000      0.00000      95.7336      12.0647
       3232.7779      0.00000      0.00000      77.0309      11.0004
       3238.4876  4.29273e-14  3.87289e-15      146.829      13.2468
       3244.1973  3.50522e-14  3.53810e-15      124.457      12.5625
       3249.9070  3.27663e-14  3.48034e-15      120.748      12.8255
       3255.6166  3.78635e-14  3.58138e-15      144.100      13.6299
       3261.3263  5.00498e-14  3.81717e-15      196.845      15.0128
       3267.0360  3.11767e-14  3.32457e-15      126.543      13.4942
       3272.7457  4.68808e-14  3.66596e-15      195.675      15.3013
       3278.4554  4.24112e-14  3.41505e-15      181.678      14.6291
       3284.1651  3.90951e-14  3.28719e-15      171.983      14.4606
       3289.8748  4.50439e-14  3.38443e-15      203.606      15.2982
       3295.5845  4.35322e-14  3.16595e-15      202.200      14.7053
       3301.2941  2.70719e-14  2.66279e-15      129.105      12.6987
       3307.0038  2.52722e-14  2.58644e-15      123.482      12.6375
       3312.7135  2.70825e-14  2.71488e-15      135.422      13.5754
       3318.4232  2.39360e-14  2.53192e-15      122.456      12.9532
       3324.1329  1.98528e-14  2.25734e-15      103.913      11.8153
       3329.8426  1.60711e-14  2.06851e-15      85.9518      11.0628
       3335.5523  2.52375e-14  2.30731e-15      137.733      12.5921
       3341.2620  2.96873e-14  2.44460e-15      165.262      13.6085
       3346.9716  2.51194e-14  2.31944e-15      142.722      13.1785
       3352.6813  2.42609e-14  2.28581e-15      140.515      13.2391
       3358.3910  2.84073e-14  2.41603e-15      167.490      14.2449
       3364.1007  2.72640e-14  2.48259e-15      163.770      14.9125
       3369.8104  2.45843e-14  2.39113e-15      150.501      14.6382
       3375.5201  2.70227e-14  2.32423e-15      168.427      14.4864
       3381.2298  2.31825e-14  2.22909e-15      146.914      14.1263
       3386.9395  2.60908e-14  2.27547e-15      167.972      14.6494
       3392.6492  3.39059e-14  2.45825e-15      221.714      16.0748
       3398.3588  3.78597e-14  2.48333e-15      251.607      16.5037
       3404.0685  3.12629e-14  2.33199e-15      211.152      15.7505
       3409.7782  3.13058e-14  2.33872e-15      214.956      16.0584
       3415.4879  2.60015e-14  2.15556e-15      181.576      15.0529
       3421.1976  2.28641e-14  2.04419e-15      162.452      14.5242
       3426.9073  3.24597e-14  2.32820e-15      234.769      16.8390
       3432.6170  2.69354e-14  2.12974e-15      198.338      15.6822
       3438.3267  2.65872e-14  2.12515e-15      199.158      15.9190
       3444.0363  3.17654e-14  2.21044e-15      241.834      16.8283
       3449.7460  2.36006e-14  1.89345e-15      182.556      14.6462
       3455.4557  3.11358e-14  2.19600e-15      244.793      17.2652
       3461.1654  3.51822e-14  2.21278e-15      281.438      17.7010
       3466.8751  3.45790e-14  2.22668e-15      281.570      18.1314
       3472.5848  3.45840e-14  2.13268e-15      286.688      17.6791
       3478.2945  3.18944e-14  2.06660e-15      269.120      17.4377
       3484.0042  4.24252e-14  2.32222e-15      364.065      19.9278
       3489.7139  4.33593e-14  2.25281e-15      378.373      19.6590
       3495.4235  3.32199e-14  2.05448e-15      294.758      18.2292
       3501.1332  3.12250e-14  2.01817e-15      281.645      18.2036
       3506.8429  2.38577e-14  1.74283e-15      218.676      15.9745
       3512.5526  2.93159e-14  1.87440e-15      273.145      17.4643
       3518.2623  2.73398e-14  1.82420e-15      258.864      17.2723
       3523.9720  1.82291e-14  1.58868e-15      175.284      15.2762
       3529.6817  2.21884e-14  1.59890e-15      216.597      15.6080
       3535.3914  1.68107e-14  1.48999e-15      166.593      14.7657
       3541.1010  1.75107e-14  1.45495e-15      176.183      14.6389
       3546.8107  1.66501e-14  1.47762e-15      170.105      15.0961
       3552.5204  1.42162e-14  1.38964e-15      147.518      14.4199
       3558.2301  1.14865e-14  1.32767e-15      121.146      14.0027
       3563.9398  2.30306e-14  1.56432e-15      247.077      16.7823
       3569.6495  2.19636e-14  1.50867e-15      239.747      16.4681
       3575.3592  2.35725e-14  1.56376e-15      261.259      17.3315
       3581.0689  1.47956e-14  1.27452e-15      166.232      14.3196
       3586.7785  1.88567e-14  1.41786e-15      214.572      16.1339
       3592.4882  2.28021e-14  1.53094e-15      263.047      17.6611
       3598.1979  2.06032e-14  1.40909e-15      241.378      16.5083
       3603.9076  1.98471e-14  1.41673e-15      236.448      16.8782
       3609.6173  2.29472e-14  1.48036e-15      278.079      17.9394
       3615.3270  2.01428e-14  1.39797e-15      248.474      17.2448
       3621.0367  1.98881e-14  1.35383e-15      249.983      17.0168
       3626.7464  2.18050e-14  1.37808e-15      279.478      17.6630
       3632.4561  2.24267e-14  1.39984e-15      293.115      18.2957
       3638.1657  2.25617e-14  1.36556e-15      300.861      18.2098
       3643.8754  1.99403e-14  1.28720e-15      271.621      17.5338
       3649.5851  1.92015e-14  1.27175e-15      267.111      17.6912
       3655.2948  1.69468e-14  1.18643e-15      240.733      16.8535
       3661.0045  1.52321e-14  1.15849e-15      220.917      16.8020
       3666.7142  1.58691e-14  1.15535e-15      234.894      17.1014
       3672.4239  1.75001e-14  1.15705e-15      264.310      17.4753
       3678.1336  1.93294e-14  1.19686e-15      297.988      18.4511
       3683.8432  1.99014e-14  1.18963e-15      313.409      18.7344
       3689.5529  2.06299e-14  1.20248e-15      332.206      19.3636
       3695.2626  2.15878e-14  1.21299e-15      355.691      19.9858
       3700.9723  2.05578e-14  1.16457e-15      346.697      19.6399
       3706.6820  2.05548e-14  1.15539e-15      354.718      19.9388
       3712.3917  2.04289e-14  1.14691e-15      360.366      20.2316
       3718.1014  1.95018e-14  1.10871e-15      351.353      19.9750
       3723.8111  2.13802e-14  1.12325e-15      393.165      20.6557
       3729.5207  2.20242e-14  1.13247e-15      413.266      21.2498
       3735.2304  2.07230e-14  1.09717e-15      396.604      20.9981
       3740.9401  2.20987e-14  1.11358e-15      431.058      21.7216
       3746.6498  2.34270e-14  1.14165e-15      465.480      22.6840
       3752.3595  2.61673e-14  1.19415e-15      529.472      24.1625
       3758.0692  2.99201e-14  1.25080e-15      616.443      25.7703
       3763.7789  3.05089e-14  1.24496e-15      639.946      26.1140
       3769.4886  3.01399e-14  1.22626e-15      643.539      26.1828
       3775.1983  2.63480e-14  1.13973e-15      572.531      24.7660
       3780.9079  2.36323e-14  1.07431e-15      522.499      23.7526
       3786.6176  2.20125e-14  1.03942e-15      495.118      23.3791
       3792.3273  2.03876e-14  1.00984e-15      466.366      23.1001
       3798.0370  1.89115e-14  9.56422e-16      439.673      22.2359
       3803.7467  1.78856e-14  9.11596e-16      422.294      21.5235
       3809.4564  1.78643e-14  9.06024e-16      428.167      21.7153
       3815.1661  1.72276e-14  8.90871e-16      419.198      21.6775
       3820.8758  1.69252e-14  8.94627e-16      418.242      22.1073
       3826.5854  1.72978e-14  8.91609e-16      434.077      22.3744
       3832.2951  1.84630e-14  8.97362e-16      470.299      22.8581
       3838.0048  1.96670e-14  9.18391e-16      508.270      23.7348
       3843.7145  1.99888e-14  9.14596e-16      523.863      23.9696
       3849.4242  1.94010e-14  8.96171e-16      515.302      23.8028
       3855.1339  1.83160e-14  8.61754e-16      492.790      23.1854
       3860.8436  1.58819e-14  8.06748e-16      432.812      21.9855
       3866.5533  1.45696e-14  7.81415e-16      401.770      21.5482
       3872.2629  1.44519e-14  7.68272e-16      403.256      21.4374
       3877.9726  1.58981e-14  7.92186e-16      449.010      22.3737
       3883.6823  1.87178e-14  8.51814e-16      535.193      24.3558
       3889.3920  2.14788e-14  8.95878e-16      621.815      25.9358
       3895.1017  2.16335e-14  8.95405e-16      634.266      26.2521
       3900.8114  1.95311e-14  8.58600e-16      580.137      25.5031
       3906.5211  1.61952e-14  7.99664e-16      487.500      24.0711
       3912.2308  1.46565e-14  7.58907e-16      447.073      23.1493
       3917.9405  1.70814e-14  7.76886e-16      527.841      24.0069
       3923.6501  1.95111e-14  8.22937e-16      610.685      25.7574
       3929.3598  2.08134e-14  8.48045e-16      659.884      26.8871
       3935.0695  2.08457e-14  8.51488e-16      669.518      27.3479
       3940.7792  2.09476e-14  8.45051e-16      681.399      27.4885
       3946.4889  1.99287e-14  8.15441e-16      656.281      26.8537
       3952.1986  1.95713e-14  8.00540e-16      652.306      26.6818
       3957.9083  1.96593e-14  8.00972e-16      663.223      27.0214
       3963.6180  2.31007e-14  8.58585e-16      789.199      29.3323
       3969.3276  2.57635e-14  8.93468e-16      891.969      30.9331
       3975.0373  2.68291e-14  9.04870e-16      941.773      31.7634
       3980.7470  2.60685e-14  8.91801e-16      927.735      31.7378
       3986.4567  2.19342e-14  8.12427e-16      790.974      29.2972
       3992.1664  1.73054e-14  7.20345e-16      631.952      26.3053
       3997.8761  1.49804e-14  6.83014e-16      553.734      25.2469
       4003.5858  1.48286e-14  6.77023e-16      554.662      25.3241
       4009.2955  1.39682e-14  6.55538e-16      528.529      24.8043
       4015.0052  1.44363e-14  6.54120e-16      552.257      25.0231
       4020.7148  1.49748e-14  6.58289e-16      578.819      25.4447
       4026.4245  1.51523e-14  6.58132e-16      591.666      25.6987
       4032.1342  1.43379e-14  6.36177e-16      565.807      25.1049
       4037.8439  1.36820e-14  6.28263e-16      545.997      25.0716
       4043.5536  1.42258e-14  6.33227e-16      574.305      25.5638
       4049.2633  1.47479e-14  6.36935e-16      602.055      26.0016
       4054.9730  1.57391e-14  6.55055e-16      649.351      27.0256
       4060.6827  1.61866e-14  6.59484e-16      674.743      27.4908
       4066.3923  1.76276e-14  6.90121e-16      742.521      29.0696
       4072.1020  1.90434e-14  7.12878e-16      810.668      30.3468
       4077.8117  1.94148e-14  7.10932e-16      835.076      30.5789
       4083.5214  1.89044e-14  6.95230e-16      821.159      30.1990
       4089.2311  2.20256e-14  7.36966e-16      965.698      32.3118
       4094.9408  2.72636e-14  8.09468e-16      1206.44      35.8198
       4100.6505  3.26282e-14  8.77414e-16      1457.80      39.2022
       4106.3602  3.46926e-14  9.02238e-16      1566.00      40.7263
       4112.0698  3.24549e-14  8.73910e-16      1480.53      39.8662
       4117.7795  2.86119e-14  8.18356e-16      1318.82      37.7208
       4123.4892  2.44004e-14  7.66424e-16      1136.13      35.6862
       4129.1989  2.20707e-14  7.15345e-16      1038.02      33.6439
       4134.9086  2.05425e-14  6.80017e-16      975.840      32.3032
       4140.6183  1.87570e-14  6.55464e-16      899.824      31.4444
       4146.3280  1.95682e-14  6.64279e-16      947.662      32.1702
       4152.0377  1.80782e-14  6.39229e-16      883.305      31.2328
       4157.7474  2.01367e-14  6.74014e-16      992.553      33.2227
       4163.4570  2.46185e-14  7.42111e-16      1224.46      36.9107
       4169.1667  2.93467e-14  7.88184e-16      1473.23      39.5674
       4174.8764  2.91603e-14  7.92966e-16      1477.70      40.1834
       4180.5861  2.84668e-14  7.85026e-16      1456.01      40.1521
       4186.2958  2.36660e-14  7.03291e-16      1221.51      36.3002
       4192.0055  1.96076e-14  6.46637e-16      1021.06      33.6735
       4197.7152  1.73441e-14  5.99152e-16      911.123      31.4747
       4203.4249  1.54281e-14  5.74391e-16      817.566      30.4381
       4209.1345  1.60473e-14  5.79416e-16      857.941      30.9776
       4214.8442  2.02471e-14  6.39728e-16      1092.27      34.5116
       4220.5539  2.30421e-14  6.79571e-16      1254.31      36.9930
       4226.2636  3.13104e-14  7.78347e-16      1719.66      42.7492
       4231.9733  3.58621e-14  8.35922e-16      1987.30      46.3225
       4237.6830  3.64627e-14  8.32092e-16      2038.94      46.5293
       4243.3927  3.25665e-14  7.85407e-16      1837.67      44.3190
       4249.1024  2.79016e-14  7.17911e-16      1588.66      40.8763
       4254.8120  2.51687e-14  6.88317e-16      1445.95      39.5442
       4260.5217  2.11702e-14  6.37249e-16      1226.18      36.9095
       4266.2314  1.84582e-14  6.02131e-16      1077.89      35.1621
       4271.9411  2.06331e-14  6.12756e-16      1215.12      36.0862
       4277.6508  2.36961e-14  6.48326e-16      1407.31      38.5041
       4283.3605  2.46871e-14  6.70724e-16      1478.11      40.1589
       4289.0702  3.14790e-14  7.34334e-16      1899.28      44.3059
       4294.7799  3.11039e-14  7.40557e-16      1890.63      45.0144
       4300.4896  3.08585e-14  7.28986e-16      1889.66      44.6404
       4306.1992  3.11753e-14  7.30671e-16      1923.71      45.0871
       4311.9089  3.03611e-14  7.19063e-16      1888.37      44.7236
       4317.6186  2.54435e-14  6.63730e-16      1595.40      41.6183
