# N Sco 2012
# 2012-06-21T 4: 6:31.7
# 
#     Wavelength       Flux    Uncertainty       Counts  Uncertainty
# 
       2714.3155      0.00000      0.00000      3.48436      7.29379
       2720.0087      0.00000      0.00000      33.8760      8.27038
       2725.7019      0.00000      0.00000      14.4196      7.91591
       2731.3951      0.00000      0.00000      17.7571      8.38923
       2737.0883      0.00000      0.00000      10.8819      7.45745
       2742.7814      0.00000      0.00000      2.37799      6.32218
       2748.4746      0.00000      0.00000      0.00000      6.00000
       2754.1678      0.00000      0.00000      13.3212      7.06535
       2759.8610      0.00000      0.00000      9.53268      6.76237
       2765.5542      0.00000      0.00000      5.77559      6.86273
       2771.2474      0.00000      0.00000      6.19703      6.92568
       2776.9406      0.00000      0.00000      8.39192      6.77901
       2782.6338      0.00000      0.00000      30.1312      8.28765
       2788.3270      0.00000      0.00000      43.0009      8.92321
       2794.0202      0.00000      0.00000      25.5325      8.52226
       2799.7133      0.00000      0.00000      5.45799      7.49074
       2805.4065      0.00000      0.00000      12.2604      7.37686
       2811.0997      0.00000      0.00000      0.00000      6.00000
       2816.7929      0.00000      0.00000      1.82837      6.14693
       2822.4861      0.00000      0.00000      35.7491      8.87384
       2828.1793      0.00000      0.00000      15.6364      7.62625
       2833.8725      0.00000      0.00000      12.7238      7.55823
       2839.5657      0.00000      0.00000      1.76214      6.21914
       2845.2589      0.00000      0.00000      31.2199      8.08928
       2850.9520      0.00000      0.00000      18.0402      7.63552
       2856.6452      0.00000      0.00000      9.78259      8.02107
       2862.3384      0.00000      0.00000      2.93023      6.74362
       2868.0316      0.00000      0.00000      24.7902      7.88615
       2873.7248      0.00000      0.00000      27.6872      8.48576
       2879.4180      0.00000      0.00000      8.90120      6.97606
       2885.1112      0.00000      0.00000      5.74330      6.50969
       2890.8044      0.00000      0.00000      6.34897      6.56344
       2896.4976      0.00000      0.00000      4.00149      6.73304
       2902.1907      0.00000      0.00000      8.43598      7.70133
       2907.8839      0.00000      0.00000      4.12260      7.04340
       2913.5771      0.00000      0.00000      0.00000      6.00000
       2919.2703      0.00000      0.00000      9.82894      6.74127
       2924.9635      0.00000      0.00000      40.9126      9.09046
       2930.6567      0.00000      0.00000      37.4294      8.88703
       2936.3499      0.00000      0.00000      17.6426      7.57206
       2942.0431      0.00000      0.00000     0.978785      6.12941
       2947.7363      0.00000      0.00000      13.1551      7.70696
       2953.4294      0.00000      0.00000      25.7585      8.54728
       2959.1226      0.00000      0.00000      19.3788      7.70017
       2964.8158      0.00000      0.00000      15.6741      7.91156
       2970.5090      0.00000      0.00000      40.3886      8.84936
       2976.2022      0.00000      0.00000      18.2415      7.93532
       2981.8954      0.00000      0.00000      13.9791      7.28165
       2987.5886      0.00000      0.00000      3.23044      6.26876
       2993.2818      0.00000      0.00000      0.00000      6.00000
       2998.9750      0.00000      0.00000      0.00000      6.00000
       3004.6682      0.00000      0.00000      0.00000      6.00000
       3010.3613      0.00000      0.00000      8.14149      7.31244
       3016.0545      0.00000      0.00000      29.6112      8.27694
       3021.7477      0.00000      0.00000      32.1785      8.51624
       3027.4409      0.00000      0.00000      17.6072      8.10334
       3033.1341      0.00000      0.00000      32.4274      8.67256
       3038.8273      0.00000      0.00000      62.3935      10.0266
       3044.5205      0.00000      0.00000      49.0766      9.36340
       3050.2137      0.00000      0.00000      20.9383      8.19652
       3055.9069      0.00000      0.00000      41.7429      9.26588
       3061.6000      0.00000      0.00000      65.9909      10.4092
       3067.2932      0.00000      0.00000      43.9581      9.44146
       3072.9864      0.00000      0.00000      27.9158      8.52458
       3078.6796      0.00000      0.00000      31.0424      8.94203
       3084.3728      0.00000      0.00000      42.6253      8.62579
       3090.0660      0.00000      0.00000      58.5148      10.0521
       3095.7592      0.00000      0.00000      58.6234      10.2872
       3101.4524      0.00000      0.00000      80.1155      10.9262
       3107.1456      0.00000      0.00000      75.7612      10.1481
       3112.8387      0.00000      0.00000      22.7815      8.26134
       3118.5319      0.00000      0.00000      81.5193      11.0553
       3124.2251      0.00000      0.00000      78.7019      10.3265
       3129.9183      0.00000      0.00000      97.9853      11.6256
       3135.6115      0.00000      0.00000      78.1841      11.5016
       3141.3047      0.00000      0.00000      111.309      12.3749
       3146.9979      0.00000      0.00000      92.4196      11.8818
       3152.6911      0.00000      0.00000      86.1868      11.9337
       3158.3843      0.00000      0.00000      101.120      11.8548
       3164.0774      0.00000      0.00000      136.677      13.1436
       3169.7706      0.00000      0.00000      155.349      13.4683
       3175.4638      0.00000      0.00000      114.521      12.9885
       3181.1570      0.00000      0.00000      107.039      12.4716
       3186.8502      0.00000      0.00000      120.341      12.7271
       3192.5434      0.00000      0.00000      137.657      13.3310
       3198.2366      0.00000      0.00000      136.235      13.8387
       3203.9298      0.00000      0.00000      133.163      14.0638
       3209.6230      0.00000      0.00000      148.137      14.1361
       3215.3161      0.00000      0.00000      125.932      13.7383
       3221.0093      0.00000      0.00000      122.481      13.5208
       3226.7025      0.00000      0.00000      157.619      14.4858
       3232.3957      0.00000      0.00000      144.803      14.5908
       3238.0889      0.00000      0.00000      141.094      14.1857
       3243.7821  2.17127e-14  1.84617e-15      174.309      14.8210
       3249.4753  2.56846e-14  1.94203e-15      212.440      16.0628
       3255.1685  2.68222e-14  1.98571e-15      227.515      16.8434
       3260.8617  2.42397e-14  1.92732e-15      210.730      16.7553
       3266.5549  2.91199e-14  2.00542e-15      259.420      17.8656
       3272.2480  3.43921e-14  2.09402e-15      314.119      19.1256
       3277.9412  3.89465e-14  2.15229e-15      364.904      20.1656
       3283.6344  4.25012e-14  2.26446e-15      408.785      21.7800
       3289.3276  3.99546e-14  2.19294e-15      394.845      21.6714
       3295.0208  3.63087e-14  2.04299e-15      368.926      20.7584
       3300.7140  3.48722e-14  1.96461e-15      364.273      20.5222
       3306.4072  2.83856e-14  1.73909e-15      304.198      18.6372
       3312.1004  2.18841e-14  1.53828e-15      240.382      16.8970
       3317.7936  2.45671e-14  1.63033e-15      276.314      18.3368
       3323.4867  1.88753e-14  1.49322e-15      217.115      17.1759
       3329.1799  2.14252e-14  1.48744e-15      251.763      17.4786
       3334.8731  2.14677e-14  1.43663e-15      257.674      17.2437
       3340.5663  2.19621e-14  1.45087e-15      269.390      17.7965
       3346.2595  2.58490e-14  1.51204e-15      324.225      18.9657
       3351.9527  2.24438e-14  1.46706e-15      287.706      18.8062
       3357.6459  2.01153e-14  1.38492e-15      263.000      18.1072
       3363.3391  2.30364e-14  1.42289e-15      306.918      18.9574
       3369.0323  2.54547e-14  1.50261e-15      345.449      20.3922
       3374.7254  1.98290e-14  1.36575e-15      274.136      18.8814
       3380.4186  2.52174e-14  1.44612e-15      355.172      20.3678
       3386.1118  3.25319e-14  1.60998e-15      466.762      23.0997
       3391.8050  3.42411e-14  1.60404e-15      500.431      23.4429
       3397.4982  3.70291e-14  1.67516e-15      551.091      24.9309
       3403.1914  3.90046e-14  1.69260e-15      590.273      25.6148
       3408.8846  3.83352e-14  1.68010e-15      589.015      25.8145
       3414.5778  3.77247e-14  1.64800e-15      587.850      25.6801
       3420.2710  3.49521e-14  1.57671e-15      551.857      24.8945
       3425.9641  3.97447e-14  1.64099e-15      635.453      26.2368
       3431.6573  3.76698e-14  1.60020e-15      610.127      25.9180
       3437.3505  3.85113e-14  1.60057e-15      632.433      26.2846
       3443.0437  3.77900e-14  1.58360e-15      630.001      26.4002
       3448.7369  4.05894e-14  1.63351e-15      687.737      27.6779
       3454.4301  3.95414e-14  1.57644e-15      680.943      27.1479
       3460.1233  3.91142e-14  1.55277e-15      684.022      27.1545
       3465.8165  3.62889e-14  1.50633e-15      643.948      26.7299
       3471.5097  3.49517e-14  1.47100e-15      628.880      26.4675
       3477.2029  3.61745e-14  1.50166e-15      659.612      27.3815
       3482.8960  3.78640e-14  1.49486e-15      699.397      27.6121
       3488.5892  3.83077e-14  1.50444e-15      716.419      28.1355
       3494.2824  4.28086e-14  1.55743e-15      810.602      29.4907
       3499.9756  4.51077e-14  1.58945e-15      865.230      30.4880
       3505.6688  4.86582e-14  1.63217e-15      945.338      31.7100
       3511.3620  5.48747e-14  1.72060e-15      1079.94      33.8617
       3517.0552  5.28932e-14  1.67655e-15      1054.49      33.4240
       3522.7484  5.22902e-14  1.65758e-15      1056.22      33.4819
       3528.4416  5.17352e-14  1.63748e-15      1058.88      33.5149
       3534.1347  5.10191e-14  1.61870e-15      1058.21      33.5741
       3539.8279  4.75607e-14  1.56065e-15      1000.04      32.8150
       3545.5211  4.53984e-14  1.50954e-15      968.273      32.1961
       3551.2143  4.15471e-14  1.43749e-15      899.099      31.1080
       3556.9075  3.80699e-14  1.37627e-15      835.832      30.2163
       3562.6007  3.87512e-14  1.37515e-15      862.913      30.6218
       3568.2939  3.92171e-14  1.37401e-15      885.626      31.0289
       3573.9871  3.92777e-14  1.35714e-15      898.891      31.0588
       3579.6803  4.26557e-14  1.39984e-15      989.109      32.4597
       3585.3734  4.47917e-14  1.42432e-15      1052.87      33.4800
       3591.0666  4.68979e-14  1.44282e-15      1117.63      34.3841
       3596.7598  4.59641e-14  1.42502e-15      1110.52      34.4291
       3602.4530  4.46282e-14  1.39176e-15      1093.31      34.0955
       3608.1462  4.50962e-14  1.38293e-15      1120.85      34.3723
       3613.8394  4.42380e-14  1.36811e-15      1116.05      34.5149
       3619.5326  4.58492e-14  1.38513e-15      1174.44      35.4808
       3625.2258  4.83519e-14  1.40029e-15      1257.79      36.4260
       3630.9190  4.75323e-14  1.38175e-15      1255.89      36.5085
       3636.6121  4.90005e-14  1.39174e-15      1316.00      37.3776
       3642.3053  5.12889e-14  1.40233e-15      1404.08      38.3898
       3647.9985  5.05823e-14  1.39183e-15      1412.83      38.8755
       3653.6917  4.91947e-14  1.36257e-15      1403.07      38.8616
       3659.3849  4.88153e-14  1.33233e-15      1422.44      38.8232
       3665.0781  4.71659e-14  1.28824e-15      1404.49      38.3607
       3670.7713  4.54211e-14  1.25343e-15      1381.87      38.1339
       3676.4645  4.84149e-14  1.27679e-15      1504.18      39.6678
       3682.1577  5.04716e-14  1.28545e-15      1600.56      40.7645
       3687.8508  5.02340e-14  1.27508e-15      1625.54      41.2609
       3693.5440  4.96345e-14  1.25463e-15      1638.80      41.4245
       3699.2372  4.77585e-14  1.21814e-15      1609.34      41.0481
       3704.9304  4.76412e-14  1.20970e-15      1638.99      41.6169
       3710.6236  4.92291e-14  1.21649e-15      1728.61      42.7153
       3716.3168  4.87493e-14  1.19878e-15      1748.22      42.9900
       3722.0100  4.50919e-14  1.14416e-15      1651.71      41.9105
       3727.7032  4.38830e-14  1.11367e-15      1641.21      41.6509
       3733.3964  4.47217e-14  1.10874e-15      1706.64      42.3107
       3739.0896  4.33181e-14  1.08250e-15      1685.88      42.1294
       3744.7827  4.12027e-14  1.04908e-15      1634.95      41.6281
       3750.4759  4.42390e-14  1.07337e-15      1789.39      43.4158
       3756.1691  5.20714e-14  1.14429e-15      2145.93      47.1576
       3761.8623  5.88963e-14  1.20434e-15      2471.32      50.5347
       3767.5555  6.51674e-14  1.25832e-15      2782.37      53.7251
       3773.2487  6.83897e-14  1.27782e-15      2969.52      55.4838
       3778.9419  6.57212e-14  1.24393e-15      2900.70      54.9025
       3784.6351  6.19107e-14  1.19863e-15      2776.83      53.7610
       3790.3283  5.78533e-14  1.15110e-15      2637.12      52.4706
       3796.0214  5.55012e-14  1.11738e-15      2571.66      51.7741
       3801.7146  5.37417e-14  1.08565e-15      2531.43      51.1380
       3807.4078  4.85961e-14  1.02786e-15      2326.68      49.2117
       3813.1010  4.62046e-14  1.00025e-15      2247.88      48.6627
       3818.7942  4.64018e-14  9.91682e-16      2292.97      49.0044
       3824.4874  4.78730e-14  1.00046e-15      2401.82      50.1936
       3830.1806  5.46087e-14  1.05822e-15      2780.55      53.8819
       3835.8738  6.30491e-14  1.12494e-15      3256.97      58.1118
       3841.5670  6.60346e-14  1.14248e-15      3459.78      59.8584
       3847.2601  6.37217e-14  1.11493e-15      3385.90      59.2426
       3852.9533  6.01872e-14  1.07499e-15      3243.94      57.9391
       3858.6465  5.69964e-14  1.03850e-15      3116.61      56.7860
       3864.3397  5.53459e-14  1.01693e-15      3068.58      56.3823
       3870.0329  5.51882e-14  1.00844e-15      3099.50      56.6363
       3875.7261  5.30001e-14  9.81720e-16      3014.91      55.8452
       3881.4193  5.33923e-14  9.78759e-16      3076.53      56.3973
       3887.1125  5.58899e-14  9.91847e-16      3263.05      57.9075
       3892.8057  5.72460e-14  9.98917e-16      3387.51      59.1105
       3898.4988  6.01146e-14  1.01696e-15      3605.93      61.0018
       3904.1920  6.29740e-14  1.03051e-15      3828.43      62.6485
       3909.8852  6.47506e-14  1.04148e-15      3988.26      64.1492
       3915.5784  6.55014e-14  1.04219e-15      4086.80      65.0247
       3921.2716  6.76647e-14  1.04831e-15      4276.16      66.2490
       3926.9648  7.25737e-14  1.07894e-15      4644.69      69.0515
       3932.6580  7.64389e-14  1.10124e-15      4952.84      71.3548
       3938.3512  7.64073e-14  1.09228e-15      5011.59      71.6433
       3944.0444  7.07084e-14  1.04770e-15      4695.44      69.5730
       3949.7376  6.27162e-14  9.81845e-16      4217.61      66.0281
       3955.4307  5.89765e-14  9.46219e-16      4016.96      64.4482
       3961.1239  6.57019e-14  9.88084e-16      4532.01      68.1564
       3966.8171  7.60754e-14  1.05277e-15      5312.57      73.5182
       3972.5103  8.37307e-14  1.09613e-15      5916.51      77.4538
       3978.2035  8.45760e-14  1.09980e-15      6044.14      78.5960
       3983.8967  7.67350e-14  1.04620e-15      5544.79      75.5971
       3989.5899  6.79337e-14  9.79520e-16      4963.30      71.5646
       3995.2831  6.06733e-14  9.22527e-16      4481.95      68.1472
       4000.9763  5.71321e-14  8.93936e-16      4266.26      66.7534
       4006.6694  5.59058e-14  8.80645e-16      4218.62      66.4529
       4012.3626  5.59593e-14  8.78358e-16      4266.15      66.9631
       4018.0558  5.68716e-14  8.81247e-16      4380.53      67.8780
       4023.7490  5.64698e-14  8.71453e-16      4394.85      67.8221
       4029.4422  5.50971e-14  8.53397e-16      4332.07      67.0994
       4035.1354  5.16264e-14  8.22636e-16      4099.76      65.3272
       4040.8286  4.94207e-14  8.04361e-16      3964.37      64.5234
       4046.5218  5.16788e-14  8.19051e-16      4187.76      66.3714
       4052.2150  5.12081e-14  8.11387e-16      4192.13      66.4239
       4057.9081  4.97866e-14  7.93742e-16      4117.01      65.6372
       4063.6013  4.87287e-14  7.82775e-16      4069.20      65.3674
       4069.2945  4.82765e-14  7.76741e-16      4070.25      65.4879
       4074.9877  4.98033e-14  7.81685e-16      4239.49      66.5407
       4080.6809  5.21737e-14  7.94672e-16      4485.31      68.3170
       4086.3741  5.56145e-14  8.17497e-16      4830.20      71.0009
       4092.0673  6.18496e-14  8.56344e-16      5428.17      75.1562
       4097.7605  7.01819e-14  9.04409e-16      6224.08      80.2075
       4103.4537  7.88238e-14  9.50378e-16      7061.58      85.1414
       4109.1468  8.28018e-14  9.70610e-16      7490.43      87.8035
       4114.8400  8.23147e-14  9.63300e-16      7517.59      87.9758
       4120.5332  7.84369e-14  9.38200e-16      7232.73      86.5123
       4126.2264  7.17643e-14  8.94109e-16      6682.25      83.2539
       4131.9196  6.49880e-14  8.46758e-16      6109.32      79.6010
       4137.6128  5.92914e-14  8.04415e-16      5624.11      76.3031
       4143.3060  5.54761e-14  7.76501e-16      5307.76      74.2929
       4148.9992  5.58192e-14  7.76789e-16      5385.80      74.9496
       4154.6924  6.02156e-14  7.99493e-16      5858.61      77.7858
       4160.3855  6.57825e-14  8.32155e-16      6452.33      81.6226
       4166.0787  7.62814e-14  8.92755e-16      7540.62      88.2514
       4171.7719  8.54063e-14  9.39831e-16      8511.75      93.6653
       4177.4651  8.88941e-14  9.51837e-16      8938.37      95.7080
       4183.1583  8.33997e-14  9.18505e-16      8465.03      93.2278
       4188.8515  7.42397e-14  8.64226e-16      7606.83      88.5513
       4194.5447  6.54707e-14  8.09303e-16      6770.57      83.6931
       4200.2379  6.08842e-14  7.79573e-16      6353.26      81.3484
       4205.9311  6.00682e-14  7.69730e-16      6322.64      81.0200
       4211.6243  6.09391e-14  7.72173e-16      6468.21      81.9602
       4217.3174  6.45875e-14  7.89668e-16      6912.80      84.5182
       4223.0106  7.14606e-14  8.25778e-16      7712.45      89.1229
       4228.7038  7.85147e-14  8.61705e-16      8545.36      93.7860
       4234.3970  8.09073e-14  8.71037e-16      8878.96      95.5896
       4240.0902  8.34552e-14  8.80432e-16      9231.56      97.3907
       4245.7834  8.54009e-14  8.85115e-16      9523.11      98.6998
       4251.4766  8.45569e-14  8.78049e-16      9508.71      98.7395
       4257.1698  8.14185e-14  8.58776e-16      9235.94      97.4178
       4262.8630  7.86045e-14  8.40510e-16      8994.10      96.1730
       4268.5561  7.36896e-14  8.09778e-16      8506.11      93.4741
       4274.2493  7.12057e-14  7.94488e-16      8291.76      92.5165
       4279.9425  7.04710e-14  7.86922e-16      8278.18      92.4391
       4285.6357  7.19579e-14  7.91332e-16      8526.47      93.7669
       4291.3289  7.72976e-14  8.14543e-16      9235.36      97.3200
       4297.0221  8.04096e-14  8.28416e-16      9678.96      99.7170
       4302.7153  8.17487e-14  8.31207e-16      9905.82      100.721
       4308.4085  8.25928e-14  8.33475e-16      10071.3      101.633
       4314.1017  8.47493e-14  8.41205e-16      10399.8      103.227
       4319.7948  8.47647e-14  8.39353e-16      10469.2      103.668
       4325.4880  8.84273e-14  8.53295e-16      10994.6      106.094
       4331.1812  9.95733e-14  9.01633e-16      12464.4      112.865
       4336.8744  1.14263e-13  9.60889e-16      14399.4      121.092
       4342.5676  1.27443e-13  1.01233e-15      16169.6      128.441
       4348.2608  1.32486e-13  1.02823e-15      16924.5      131.352
