# N Sco 2012
# 2012-07-15T 0:56:35.2
# 
#     Wavelength       Flux    Uncertainty       Counts  Uncertainty
# 
       5620.7996  2.80182e-14  1.27723e-15      533.471      24.3186
       5621.9002  2.63366e-14  1.25833e-15      501.658      23.9685
       5623.0008  2.64019e-14  1.22364e-15      503.107      23.3173
       5624.1014  2.82846e-14  1.28352e-15      539.205      24.4685
       5625.2020  2.84413e-14  1.29051e-15      542.416      24.6119
       5626.3026  2.90318e-14  1.30422e-15      553.903      24.8836
       5627.4032  3.46457e-14  1.48753e-15      588.729      25.2774
       5628.5038  3.67716e-14  1.56827e-15      596.971      25.4602
       5629.6044  3.58908e-14  1.54258e-15      582.912      25.0535
       5630.7050  3.19712e-14  1.52647e-15      519.466      24.8021
       5631.8056  3.63189e-14  1.49871e-15      621.393      25.6420
       5632.9062  3.70899e-14  1.51262e-15      629.786      25.6843
       5634.0068  3.82919e-14  1.58800e-15      645.238      26.7585
       5635.1074  4.24592e-14  1.65866e-15      709.956      27.7342
       5636.2080  4.37772e-14  1.68711e-15      726.318      27.9912
       5637.3086  3.76588e-14  1.62169e-15      619.918      26.6953
       5638.4092  4.59662e-14  1.72556e-15      750.698      28.1810
       5639.5098  4.98697e-14  1.80450e-15      812.959      29.4164
       5640.6104  5.16397e-14  1.85333e-15      842.162      30.2248
       5641.7110  5.41280e-14  1.89975e-15      883.107      30.9948
       5642.8116  5.35391e-14  1.87639e-15      873.862      30.6263
       5643.9122  5.96554e-14  1.96331e-15      974.094      32.0583
       5645.0128  6.53032e-14  2.03984e-15      1066.76      33.3218
       5646.1134  6.80971e-14  2.08877e-15      1112.86      34.1352
       5647.2140  6.91959e-14  2.10854e-15      1131.29      34.4727
       5648.3146  6.92519e-14  2.11131e-15      1132.67      34.5323
       5649.4152  6.64973e-14  2.06449e-15      1088.07      33.7806
       5650.5158  6.60059e-14  2.06046e-15      1080.48      33.7286
       5651.6164  6.87287e-14  2.09815e-15      1125.73      34.3663
       5652.7170  6.89775e-14  2.09710e-15      1130.50      34.3702
       5653.8176  7.21530e-14  2.14031e-15      1183.35      35.1021
       5654.9181  7.49019e-14  2.17680e-15      1229.37      35.7279
       5656.0187  7.19742e-14  2.13545e-15      1182.43      35.0823
       5657.1193  6.90533e-14  2.11011e-15      1135.53      34.6992
       5658.2199  7.00090e-14  2.11031e-15      1152.36      34.7361
       5659.3205  6.91873e-14  2.11049e-15      1140.19      34.7804
       5660.4211  7.23654e-14  2.15091e-15      1194.09      35.4919
       5661.5217  7.46014e-14  2.16430e-15      1232.68      35.7619
       5662.6223  7.55820e-14  2.17062e-15      1250.79      35.9211
       5663.7229  7.62121e-14  2.17786e-15      1263.59      36.1087
       5664.8235  7.72732e-14  2.19159e-15      1283.65      36.4064
       5665.9241  7.77379e-14  2.19623e-15      1293.86      36.5539
       5667.0247  7.90500e-14  2.21748e-15      1318.24      36.9786
       5668.1253  7.68052e-14  2.19915e-15      1283.27      36.7436
       5669.2259  7.93363e-14  2.24489e-15      1328.11      37.5800
       5670.3265  8.40336e-14  2.29436e-15      1409.44      38.4818
       5671.4271  8.37888e-14  2.28017e-15      1408.03      38.3172
       5672.5277  8.63706e-14  2.30801e-15      1454.22      38.8601
       5673.6283  8.84537e-14  2.33119e-15      1492.22      39.3272
       5674.7289  8.81584e-14  2.33266e-15      1490.15      39.4290
       5675.8295  8.53877e-14  2.30075e-15      1446.17      38.9668
       5676.9301  8.48374e-14  2.29068e-15      1439.63      38.8711
       5678.0307  8.79880e-14  2.31886e-15      1496.46      39.4382
       5679.1313  8.80662e-14  2.30536e-15      1501.55      39.3070
       5680.2319  8.91737e-14  2.31870e-15      1524.28      39.6344
       5681.3325  8.99707e-14  2.33389e-15      1541.95      39.9989
       5682.4331  9.09426e-14  2.34035e-15      1562.36      40.2064
       5683.5337  8.91563e-14  2.30705e-15      1535.23      39.7263
       5684.6343  8.55415e-14  2.27818e-15      1476.26      39.3165
       5685.7349  8.56908e-14  2.26795e-15      1481.91      39.2212
       5686.8355  8.28145e-14  2.23070e-15      1434.65      38.6438
       5687.9361  8.20257e-14  2.22430e-15      1423.37      38.5977
       5689.0367  8.35031e-14  2.22845e-15      1451.43      38.7345
       5690.1373  8.39601e-14  2.23269e-15      1461.82      38.8733
       5691.2379  8.44236e-14  2.23734e-15      1472.36      39.0194
       5692.3385  8.43339e-14  2.23187e-15      1473.25      38.9891
       5693.4391  8.31608e-14  2.21954e-15      1455.19      38.8385
       5694.5397  7.78624e-14  2.15690e-15      1364.75      37.8056
       5695.6403  7.82151e-14  2.15383e-15      1373.20      37.8141
       5696.7409  7.74634e-14  2.14075e-15      1362.21      37.6454
       5697.8415  7.79706e-14  2.15795e-15      1373.11      38.0030
       5698.9421  7.89201e-14  2.16097e-15      1392.16      38.1198
       5700.0427  7.74228e-14  2.14014e-15      1368.17      37.8192
       5701.1433  7.47323e-14  2.13493e-15      1322.60      37.7838
       5702.2438  7.74182e-14  2.15804e-15      1371.66      38.2352
       5703.3444  8.00194e-14  2.17215e-15      1419.56      38.5344
       5704.4450  7.87013e-14  2.14590e-15      1398.07      38.1204
       5705.5456  7.97117e-14  2.16849e-15      1418.18      38.5802
       5706.6462  8.01893e-14  2.16130e-15      1428.84      38.5108
       5707.7468  8.20157e-14  2.18758e-15      1463.61      39.0384
       5708.8474  7.87423e-14  2.15001e-15      1407.33      38.4263
       5709.9480  8.38732e-14  2.19973e-15      1501.31      39.3747
       5711.0486  8.38743e-14  2.21620e-15      1503.61      39.7297
       5712.1492  8.20375e-14  2.18337e-15      1472.91      39.2006
       5713.2498  8.78904e-14  2.25075e-15      1580.39      40.4717
       5714.3504  8.97168e-14  2.26678e-15      1615.68      40.8217
       5715.4510  8.38618e-14  2.19442e-15      1512.53      39.5785
       5716.5516  8.35666e-14  2.20175e-15      1509.48      39.7707
       5717.6522  8.68053e-14  2.22606e-15      1570.36      40.2707
       5718.7528  8.61960e-14  2.23676e-15      1561.69      40.5254
       5719.8534  8.55018e-14  2.23036e-15      1551.45      40.4705
       5720.9540  8.85314e-14  2.24978e-15      1608.85      40.8845
       5722.0546  9.27758e-14  2.29858e-15      1688.09      41.8236
       5723.1552  9.46597e-14  2.32505e-15      1724.33      42.3534
       5724.2558  9.54117e-14  2.31856e-15      1739.79      42.2780
       5725.3564  9.53997e-14  2.32716e-15      1741.30      42.4770
       5726.4570  9.63259e-14  2.33120e-15      1759.90      42.5916
       5727.5576  1.01660e-13  2.40345e-15      1858.90      43.9479
       5728.6582  1.03283e-13  2.40574e-15      1890.02      44.0236
       5729.7588  1.05843e-13  2.43609e-15      1938.36      44.6133
       5730.8594  1.09843e-13  2.48502e-15      2013.15      45.5446
       5731.9600  1.11972e-13  2.50366e-15      2053.76      45.9215
       5733.0606  1.15986e-13  2.54895e-15      2129.02      46.7881
       5734.1612  1.21591e-13  2.61113e-15      2233.63      47.9664
       5735.2618  1.27008e-13  2.65866e-15      2334.93      48.8772
       5736.3624  1.22519e-13  2.61382e-15      2254.14      48.0898
       5737.4630  1.22941e-13  2.62597e-15      2263.64      48.3506
       5738.5636  1.22067e-13  2.60841e-15      2249.28      48.0643
       5739.6642  1.22247e-13  2.60716e-15      2254.33      48.0782
       5740.7648  1.19516e-13  2.58625e-15      2205.69      47.7295
       5741.8654  1.17223e-13  2.55749e-15      2165.04      47.2351
       5742.9660  1.17152e-13  2.54225e-15      2165.38      46.9899
       5744.0666  1.20297e-13  2.57663e-15      2225.24      47.6620
       5745.1672  1.16343e-13  2.54122e-15      2153.76      47.0434
       5746.2678  1.11676e-13  2.49772e-15      2069.98      46.2964
       5747.3684  1.16396e-13  2.52675e-15      2161.19      46.9154
       5748.4690  1.14010e-13  2.51532e-15      2120.51      46.7835
       5749.5695  1.14174e-13  2.49846e-15      2126.86      46.5421
       5750.6701  1.15420e-13  2.52190e-15      2153.38      47.0510
       5751.7707  1.17325e-13  2.54204e-15      2192.06      47.4945
       5752.8713  1.19664e-13  2.56384e-15      2239.07      47.9730
       5753.9719  1.15841e-13  2.51889e-15      2170.89      47.2049
       5755.0725  1.16994e-13  2.52969e-15      2195.94      47.4815
       5756.1731  1.14130e-13  2.49834e-15      2145.55      46.9666
       5757.2737  1.16468e-13  2.51748e-15      2192.92      47.4005
       5758.3743  1.18960e-13  2.53880e-15      2243.35      47.8768
       5759.4749  1.14280e-13  2.48477e-15      2158.52      46.9321
       5760.5755  1.13927e-13  2.48735e-15      2155.59      47.0625
       5761.6761  1.13212e-13  2.46874e-15      2145.79      46.7917
       5762.7767  1.12143e-13  2.46322e-15      2129.21      46.7682
       5763.8773  1.12780e-13  2.48279e-15      2145.03      47.2216
       5764.9779  1.09165e-13  2.43556e-15      2079.86      46.4035
       5766.0785  1.09374e-13  2.42683e-15      2087.46      46.3174
       5767.1791  1.09263e-13  2.41911e-15      2089.14      46.2539
       5768.2797  1.08133e-13  2.40426e-15      2071.27      46.0533
       5769.3803  1.03932e-13  2.37498e-15      1993.46      45.5531
       5770.4809  1.02522e-13  2.35166e-15      1968.14      45.1452
       5771.5815  9.88491e-14  2.30321e-15      1899.57      44.2605
       5772.6821  9.69255e-14  2.27635e-15      1864.60      43.7912
       5773.7827  9.31008e-14  2.23834e-15      1792.89      43.1049
       5774.8833  8.70742e-14  2.16072e-15      1678.84      41.6599
       5775.9839  8.67262e-14  2.16648e-15      1674.06      41.8193
       5777.0845  8.28297e-14  2.11483e-15      1600.61      40.8672
       5778.1851  7.92735e-14  2.05950e-15      1533.58      39.8418
       5779.2857  7.39342e-14  1.99263e-15      1431.89      38.5915
       5780.3863  6.85713e-14  1.91395e-15      1329.54      37.1098
       5781.4869  6.62917e-14  1.89282e-15      1286.86      36.7437
       5782.5875  6.66089e-14  1.89550e-15      1294.57      36.8397
       5783.6881  6.86492e-14  1.90918e-15      1335.61      37.1442
       5784.7887  6.99763e-14  1.92192e-15      1363.14      37.4391
       5785.8893  7.02802e-14  1.92802e-15      1371.07      37.6129
       5786.9899  6.87035e-14  1.91730e-15      1342.47      37.4643
       5788.0905  6.97078e-14  1.91798e-15      1364.41      37.5410
       5789.1911  6.64807e-14  1.88187e-15      1303.45      36.8969
       5790.2917  6.65359e-14  1.87829e-15      1306.66      36.8865
       5791.3923  6.40593e-14  1.85049e-15      1260.19      36.4032
       5792.4929  6.04345e-14  1.80859e-15      1191.19      35.6480
       5793.5935  6.26985e-14  1.82109e-15      1238.60      35.9753
       5794.6941  6.42359e-14  1.83426e-15      1272.00      36.3221
       5795.7947  6.22298e-14  1.81121e-15      1235.28      35.9532
       5796.8952  5.93064e-14  1.77188e-15      1180.12      35.2583
       5797.9958  6.23470e-14  1.80329e-15      1243.56      35.9681
       5799.0964  6.14095e-14  1.79195e-15      1227.92      35.8311
       5800.1970  6.01681e-14  1.77789e-15      1206.16      35.6406
       5801.2976  6.21793e-14  1.79923e-15      1249.65      36.1602
       5802.3982  6.15006e-14  1.78920e-15      1239.33      36.0552
       5803.4988  6.17908e-14  1.78737e-15      1248.54      36.1153
       5804.5994  6.20999e-14  1.79283e-15      1258.34      36.3285
       5805.7000  6.05583e-14  1.77008e-15      1230.56      35.9684
       5806.8006  5.92936e-14  1.75381e-15      1208.48      35.7450
       5807.9012  6.01505e-14  1.75699e-15      1229.37      35.9099
       5809.0018  6.00779e-14  1.75073e-15      1231.07      35.8745
       5810.1024  6.04422e-14  1.75371e-15      1241.56      36.0233
       5811.2030  6.02437e-14  1.75047e-15      1240.39      36.0415
       5812.3036  5.87904e-14  1.73102e-15      1213.31      35.7246
       5813.4042  5.73409e-14  1.70255e-15      1186.16      35.2192
       5814.5048  5.78656e-14  1.70750e-15      1199.69      35.4005
       5815.6054  5.76090e-14  1.69696e-15      1196.85      35.2550
       5816.7060  5.70643e-14  1.68522e-15      1187.71      35.0756
       5817.8066  5.70130e-14  1.68822e-15      1188.51      35.1931
       5818.9072  5.63451e-14  1.67903e-15      1176.31      35.0529
       5820.0078  5.71432e-14  1.69302e-15      1194.73      35.3972
       5821.1084  5.55705e-14  1.67361e-15      1163.51      35.0414
       5822.2090  5.29595e-14  1.63651e-15      1110.56      34.3177
       5823.3096  5.34542e-14  1.63890e-15      1122.67      34.4212
       5824.4102  5.34874e-14  1.64108e-15      1125.12      34.5206
       5825.5108  5.55754e-14  1.67223e-15      1170.70      35.2256
       5826.6114  5.55162e-14  1.65529e-15      1171.12      34.9185
       5827.7120  5.34397e-14  1.63191e-15      1128.73      34.4686
       5828.8126  5.33956e-14  1.63083e-15      1129.36      34.4934
       5829.9132  5.25799e-14  1.62067e-15      1113.47      34.3204
       5831.0138  5.28245e-14  1.62012e-15      1120.19      34.3561
       5832.1144  5.39365e-14  1.63388e-15      1145.41      34.6975
       5833.2150  5.20143e-14  1.60279e-15      1106.17      34.0860
       5834.3156  5.00768e-14  1.58441e-15      1066.49      33.7434
       5835.4162  5.08933e-14  1.59245e-15      1085.43      33.9632
       5836.5168  4.86337e-14  1.55206e-15      1038.72      33.1489
       5837.6174  4.66886e-14  1.51597e-15      998.604      32.4246
       5838.7180  4.34859e-14  1.46086e-15      931.383      31.2888
       5839.8186  4.13754e-14  1.42883e-15      887.341      30.6429
       5840.9192  3.97235e-14  1.39444e-15      853.122      29.9477
       5842.0198  4.14827e-14  1.43592e-15      892.276      30.8859
       5843.1203  4.30775e-14  1.47239e-15      927.995      31.7188
       5844.2209  4.21810e-14  1.46726e-15      910.042      31.6556
       5845.3215  4.67867e-14  1.54025e-15      1010.65      33.2713
       5846.4221  5.22555e-14  1.59223e-15      1130.14      34.4356
       5847.5227  5.43360e-14  1.61985e-15      1176.79      35.0823
       5848.6233  5.73767e-14  1.66771e-15      1244.71      36.1788
       5849.7239  6.13043e-14  1.72230e-15      1332.19      37.4267
       5850.8245  6.79356e-14  1.79040e-15      1478.78      38.9722
       5851.9251  7.29450e-14  1.86133e-15      1590.24      40.5778
       5853.0257  7.54746e-14  1.89142e-15      1647.82      41.2951
       5854.1263  7.28144e-14  1.86351e-15      1591.86      40.7397
       5855.2269  7.37840e-14  1.86604e-15      1615.13      40.8477
       5856.3275  7.10517e-14  1.84513e-15      1557.67      40.4507
       5857.4281  6.95935e-14  1.81414e-15      1527.99      39.8311
       5858.5287  6.45154e-14  1.75038e-15      1418.63      38.4892
       5859.6293  5.94719e-14  1.69539e-15      1309.69      37.3359
       5860.7299  5.90794e-14  1.67701e-15      1303.06      36.9885
       5861.8305  5.67581e-14  1.63133e-15      1253.81      36.0367
       5862.9311  5.20762e-14  1.56578e-15      1152.20      34.6431
       5864.0317  4.86903e-14  1.52187e-15      1079.11      33.7290
       5865.1323  4.27273e-14  1.45510e-15      948.473      32.3006
       5866.2329  3.95861e-14  1.39449e-15      880.135      31.0043
       5867.3335  4.39394e-14  1.45433e-15      978.451      32.3853
       5868.4341  4.06207e-14  1.39541e-15      905.962      31.1219
       5869.5347  4.46757e-14  1.44671e-15      997.914      32.3150
       5870.6353  4.74151e-14  1.50924e-15      1060.59      33.7590
       5871.7359  5.04939e-14  1.53857e-15      1130.80      34.4559
       5872.8365  5.42226e-14  1.59505e-15      1215.98      35.7702
       5873.9371  5.99114e-14  1.66920e-15      1345.55      37.4886
       5875.0377  6.90724e-14  1.79335e-15      1553.79      40.3416
       5876.1383  7.79316e-14  1.89866e-15      1755.89      42.7791
       5877.2389  9.15854e-14  2.04143e-15      2066.84      46.0696
       5878.3395  9.53354e-14  2.07950e-15      2154.89      47.0034
       5879.4401  1.05844e-13  2.19133e-15      2395.70      49.5994
       5880.5407  1.11142e-13  2.23674e-15      2519.08      50.6966
       5881.6413  1.17842e-13  2.29743e-15      2674.62      52.1438
       5882.7419  1.21218e-13  2.33557e-15      2755.23      53.0863
       5883.8425  1.22759e-13  2.35600e-15      2794.37      53.6296
       5884.9431  1.22246e-13  2.36303e-15      2786.78      53.8689
       5886.0437  1.19112e-13  2.31091e-15      2719.05      52.7529
       5887.1443  9.77920e-14  2.11694e-15      2235.12      48.3844
       5888.2449  8.14657e-14  1.96119e-15      1864.13      44.8766
       5889.3455  7.94748e-14  1.96095e-15      1820.61      44.9214
       5890.4460  8.94470e-14  2.06671e-15      2051.34      47.3971
       5891.5466  1.14240e-13  2.27611e-15      2622.87      52.2578
       5892.6472  1.20700e-13  2.31830e-15      2774.28      53.2861
       5893.7478  1.10223e-13  2.22643e-15      2535.98      51.2253
       5894.8484  9.76776e-14  2.10604e-15      2249.42      48.4999
       5895.9490  9.90676e-14  2.11799e-15      2282.91      48.8070
       5897.0496  1.22638e-13  2.36148e-15      2827.61      54.4476
       5898.1502  1.53162e-13  2.59966e-15      3532.89      59.9648
       5899.2508  1.57854e-13  2.63620e-15      3642.67      60.8336
       5900.3514  1.57609e-13  2.64145e-15      3638.58      60.9808
       5901.4520  1.60767e-13  2.65883e-15      3712.98      61.4068
       5902.5526  1.63009e-13  2.67750e-15      3766.25      61.8626
       5903.6532  1.59790e-13  2.64919e-15      3693.33      61.2327
       5904.7538  1.57737e-13  2.63670e-15      3647.34      60.9681
       5905.8544  1.51788e-13  2.58607e-15      3510.92      59.8168
       5906.9550  1.49533e-13  2.56405e-15      3459.61      59.3222
       5908.0556  1.34447e-13  2.44311e-15      3111.36      56.5379
       5909.1562  1.41960e-13  2.50327e-15      3286.27      57.9491
       5910.2568  1.35729e-13  2.44702e-15      3143.11      56.6663
       5911.3574  1.32897e-13  2.43128e-15      3078.78      56.3248
       5912.4580  1.26338e-13  2.36625e-15      2928.16      54.8430
       5913.5586  1.25908e-13  2.36612e-15      2919.52      54.8649
       5914.6592  1.22051e-13  2.32528e-15      2831.61      53.9469
       5915.7598  1.19547e-13  2.30519e-15      2775.01      53.5098
       5916.8604  1.14596e-13  2.25385e-15      2661.53      52.3462
       5917.9610  1.12900e-13  2.24533e-15      2623.55      52.1765
       5919.0616  1.13264e-13  2.23462e-15      2634.63      51.9796
       5920.1622  1.07211e-13  2.17041e-15      2497.29      50.5561
       5921.2628  1.03883e-13  2.14809e-15      2423.52      50.1135
       5922.3634  1.04752e-13  2.14475e-15      2447.69      50.1152
       5923.4640  1.04096e-13  2.14337e-15      2436.53      50.1692
       5924.5646  9.88342e-14  2.11132e-15      2317.98      49.5173
       5925.6652  1.01394e-13  2.12186e-15      2383.19      49.8724
       5926.7658  1.00516e-13  2.09255e-15      2367.65      49.2901
       5927.8664  1.00617e-13  2.09133e-15      2375.17      49.3678
       5928.9670  9.71188e-14  2.07062e-15      2297.54      48.9846
       5930.0676  9.64178e-14  2.05615e-15      2285.88      48.7471
       5931.1682  9.59494e-14  2.05247e-15      2279.67      48.7648
       5932.2688  9.59472e-14  2.05264e-15      2284.53      48.8740
       5933.3694  9.81951e-14  2.06248e-15      2343.08      49.2138
       5934.4700  9.44170e-14  2.03665e-15      2257.76      48.7017
       5935.5706  9.45385e-14  2.02577e-15      2265.52      48.5455
       5936.6712  9.28006e-14  2.00106e-15      2228.63      48.0560
